 # HCl ZPE restriction,  Energy (cm-1), speed (m/s)
 #Water ZPE (DMC): 4713.0629051, HWW ZPE (DMC): 12528.93462455
 #E_given = DMC ZPE + 3550 =21233.1103893624.
 #Dvib = Evib - ZPE
 #D0 = E_given - Erot(W) - Erot(HWW) - Evib(W) + Evib(HWW) - E_COM,E_COM=0
 
       #Erot(W)     #Erot(HWW)       #Dvib(W)     #Dvib(HWW)             D0         #Speed
          74.59          12.77         757.62        -576.16        3722.25         601.06
         950.03         219.62        1117.32       -2015.11        3719.20         597.62
         535.73         250.95        1493.51       -2207.08        3917.97         770.13
         257.98         132.36         182.41          -1.15        3419.49         265.76
         283.31          97.04         120.01        -320.04        3810.77         691.26
         159.29         192.33        1592.39       -1786.49        3833.56         719.64
         334.71         153.21         228.68        -393.99        3668.48         582.72
         189.69           1.17        1922.93       -1654.13        3531.40         436.36
          76.66          44.98         798.58        -601.85        3672.69         564.75
         522.75         112.53        4009.37       -4239.77        3586.18         483.66
         638.54          77.33        1278.30       -1583.96        3580.88         479.58
          50.86         101.53         216.62          53.25        3568.83         444.42
         138.55         120.70        1206.99       -1007.81        3532.63         447.50
         246.58         109.81        2392.61       -2271.71        3513.79         429.14
         137.93          78.71        2103.20       -1903.85        3575.07         471.06
          33.43          30.81         471.97        -364.85        3819.71         672.58
          77.61          45.18        1930.41       -1864.08        3801.94         699.71
          81.63          11.05         311.56        -272.01        3858.85         702.92
         236.70          15.45         330.25         -70.44        3479.12         343.74
         324.93          42.79         621.58        -548.51        3550.28         451.21
         917.88           7.36         982.96       -1428.64        3511.50         404.13
         440.02         567.16         899.57       -1527.58        3611.89         530.01
         255.38         595.28         434.48        -826.27        3532.20         435.07
         470.41          55.08         388.09        -522.02        3599.51         541.30
          31.66          40.67         156.71         296.10        3465.95         312.81
         270.25         114.12        2289.08       -2321.54        3639.15         512.14
         279.19          82.40        2305.00       -2463.55        3788.03         676.73
         318.30           1.36        2167.78       -2023.02        3526.66         392.91
         297.38          30.43        2167.85       -1861.43        3356.87         190.28
          98.27          16.27         447.53        -402.62        3831.63         718.41
         126.11         348.74        3092.87       -4144.46        4567.79        1114.45
         526.09         151.13         448.15        -571.95        3437.64         268.27
         370.86          66.69          10.98         147.51        3395.03         226.41
         280.26          62.90        2215.54       -2237.27        3669.63         558.87
         316.92         129.11         807.98        -824.71        3561.78         478.53
         339.51          62.14         678.24       -1006.02        3917.21         756.72
         815.22          20.26          29.77       -1467.66        4593.46        1138.41
         323.10          68.97         243.50        -238.17        3593.67         472.04
         245.33         415.83         736.32        -995.10        3588.69         454.61
         794.05           8.83        3670.17       -3940.38        3458.42         320.87
         383.95         282.65        1592.03       -2234.21        3966.66         771.76
         293.39         123.60        3932.33       -3912.64        3554.41         434.66
          28.18         204.10        1426.51       -1348.00        3680.27         590.01
          14.65         184.11        2958.68       -2682.36        3515.99         412.66
          84.04         136.88         758.75        -502.59        3514.01         403.48
         949.71          30.94        2932.38       -3494.05        3572.10         480.17
         416.73          88.19         193.70        -255.82        3548.27         418.05
         207.09          15.02         203.25         141.57        3424.16         288.43
          19.75          26.92         788.53        -313.52        3469.38         342.36
         209.73          10.46         161.52          82.23        3527.13         354.16
         182.42         201.10         902.13       -1198.10        3903.52         764.79
         257.90         322.25        1425.65       -1737.08        3722.35         605.75
         129.08          23.51        1818.30       -1436.54        3456.74         348.22
         100.62           9.76        2298.72       -1906.72        3488.70         341.83
         326.25          61.25         266.22        -218.50        3555.85         446.76
         509.04         119.39        3506.71       -3601.19        3457.11         318.90
        1203.37         215.30         454.62       -1464.83        3582.62         487.51
         176.36           4.55        3143.71       -2869.85        3536.28         454.18
         457.12          17.76         531.61        -605.86        3590.45         508.19
         455.57         151.44        4467.67       -4549.30        3465.69         343.23
         877.78          53.74        2235.98       -2591.03        3414.62         209.97
         455.62          40.55        1795.56       -1811.69        3511.02         396.22
         282.05         116.66        1373.69       -1347.24        3565.91         436.61
         712.09          66.65        2334.27       -2856.66        3734.71         637.22
          55.47         788.50        2264.29       -3235.64        4118.43         903.78
         388.79          88.49         219.02        -355.92        3650.71         555.96
         149.42         171.56        1482.60       -1485.54        3673.02         558.41
          32.23         210.67         402.94        -338.69        3683.91         613.32
         141.76          40.87        2496.33       -3989.08        5301.18        1445.53
          98.72          32.33         685.09        -245.20        3420.13         260.52
         181.95         197.23         932.77        -956.56        3635.67         520.37
         252.16          76.66        1157.74        -909.18        3413.69         227.20
         530.68          71.15        1155.02       -1300.61        3534.82         441.22
         211.22         220.23          35.78        -409.84        3933.68         779.19
         166.76         111.86         475.41        -290.99        3528.03         436.46
         249.18          86.46         388.49        -477.54        3744.48         630.57
         262.32          90.30        1379.45       -1267.82        3526.80         433.21
           7.94          45.32         895.53        -429.32        3471.61         297.36
         189.68           9.28        2948.79       -2588.84        3432.16         342.33
         209.81         140.10         333.18        -119.76        3427.74         289.50
         152.12         403.25         166.06        -565.00        3834.63         711.62
         210.96         224.33        2790.04       -2853.81        3619.54         530.84
         149.25          34.07         328.97        -168.53        3647.32         524.53
         208.67          28.75        1425.79       -1478.36        3806.23         686.80
         380.26         141.39         237.60        -456.15        3687.97         609.77
         261.11          87.21        2112.75       -1954.30        3484.29         346.70
          20.23          52.19         700.93        -401.37        3619.10         556.90
         234.79           0.53         124.05         165.16        3466.54         297.25
         273.16         138.74        1381.38       -1497.34        3695.14         598.13
         891.95          20.15         696.82       -1050.45        3432.62         168.15
         732.46          48.63        1161.02       -1559.29        3608.26         504.07
          40.04          28.84         257.02          25.23        3639.93         533.72
         101.55         103.31        1195.19       -1197.92        3788.95         664.88
         182.12          13.98          61.72          54.96        3678.30         562.93
         411.57         134.77        1926.21       -1895.62        3414.14         236.08
         475.04         909.30         791.33       -2327.36        4142.77         915.40
         998.83          75.22        1115.87       -1574.83        3375.98         170.49
         290.81           5.10         265.18        -333.40        3763.37         670.32
         761.47          55.69        3028.71       -3365.48        3510.67         362.69
         235.39         267.42         912.73        -991.28        3566.82         448.20
          89.15         654.61        1497.58       -2020.03        3769.75         658.25
         235.66         256.24         784.45        -852.44        3567.17         423.03
         136.67          63.74        1802.29       -1353.97        3342.36         151.73
          52.47         235.19         137.26         127.74        3438.39         269.65
          85.10          95.86         264.51        -329.80        3875.40         740.26
          86.29          32.73         392.81        -859.82        4339.05        1017.89
         365.01          22.86         905.62        -695.86        3393.44         189.79
          10.82         205.95        2078.10       -2087.83        3784.05         668.76
         491.85          59.15        1051.86       -1537.09        3925.31         774.23
         420.43         112.93        2989.16       -3255.29        3723.84         616.71
         287.36         160.95        1195.00       -1062.56        3410.33         227.00
         473.94          82.63        1965.40       -2526.00        3995.11         805.13
         384.00          68.48        1115.39       -1779.21        4202.42         944.17
         105.32         357.12         306.22        -401.54        3623.96         540.91
         397.59          95.88         384.48        -914.05        4027.17         847.41
        1030.71         564.64        1463.21       -2775.06        3707.57         621.85
         465.45          45.59        1398.30       -1447.16        3528.89         394.27
         615.30         101.44        6280.15       -6506.94        3501.11         336.15
         396.82         112.34        1464.02       -1423.41        3441.30         316.39
        1017.08          64.21         564.56       -1171.39        3516.63         315.55
         233.48         151.75         618.02        -480.96        3468.78         342.03
         241.50          14.53         393.17         -80.34        3422.20         251.88
         263.23          51.14        1355.61       -1245.86        3566.97         474.45
         546.57         154.44        1929.96       -2111.83        3471.92         344.33
         446.08         108.72        2092.04       -2486.35        3830.59         719.98
         317.34          58.50        2257.65       -2228.06        3585.62         479.63
         135.24         180.99        2547.64       -2606.73        3733.92         614.78
         418.33         208.25         510.20        -644.78        3499.10         369.89
          99.75         341.12          84.69         -22.43        3487.93         396.52
         368.15           3.16        1477.45       -1389.61        3531.90         410.16
         133.95         113.26        3672.35       -3575.16        3646.67         565.00
        1053.72         158.54         177.64       -1483.56        4084.73         877.58
          22.20         378.11          35.25        -116.45        3671.95         552.94
         514.84         104.25         882.45       -1550.13        4039.67         831.36
         158.59          78.57        2969.84       -2716.76        3500.81         367.44
        1010.40          86.14        3120.37       -3684.44        3458.62         325.27
          68.90          89.33        1500.33       -1355.02        3687.55         560.01
         393.94         524.35         281.28        -974.80        3766.32         676.96
         356.34          37.81         634.36        -671.71        3634.28         557.20
         403.61           4.22         379.45        -230.79        3434.59         242.66
         336.14         158.30        2335.87       -2241.30        3402.07         232.43
         199.57          52.41         110.48        -808.87        4437.48        1082.03
         200.40         126.81        1055.67       -1135.80        3744.01         589.21
         130.78         101.73         945.22        -878.11        3691.45         594.24
         146.06         107.87         313.96          16.67        3406.53         220.33
         180.23         435.18        1891.54       -2245.25        3729.39         637.40
        1181.88          56.10        3495.91       -4279.78        3536.96         429.99
          49.30          73.33         621.13        -122.87        3370.19         162.82
         301.94          29.39        1259.44       -1236.28        3636.60         495.56
         291.62         190.68          40.61        -201.98        3670.13         557.06
         372.42         473.68         668.64       -1192.87        3669.20         583.02
          98.35          14.80         913.43        -674.33        3638.85         495.65
         393.26         205.33         143.21        -143.06        3392.32         185.55
         621.06          15.14        1167.17       -1394.11        3581.81         467.51
         260.07          60.97         811.17        -719.05        3577.92         518.03
         477.38         272.04          38.21        -436.78        3640.23         547.79
         200.07          28.71        1986.03       -1655.60        3431.87         266.10
          90.32          80.26         433.51         -93.52        3480.50         420.66
         171.39          89.37         860.47        -642.22        3512.07         398.25
         190.41          98.38         210.02         -36.32        3528.58         411.99
         139.47         286.49         879.43        -833.97        3519.66         414.48
         186.39         144.49         811.86        -878.99        3727.34         636.57
          81.12          67.29        1860.36       -1627.38        3609.68         527.77
         495.90          73.73        2871.87       -3204.89        3754.48         666.35
         242.75          25.96        2247.83       -2038.99        3513.54         443.96
          52.45          55.29        2581.74       -2350.16        3651.75         561.88
         278.51         121.29        1129.41       -1174.23        3636.09         525.47
         119.67         137.53          37.11        -305.32        4002.10         821.07
         320.53         493.05        1448.26       -1799.27        3528.52         436.72
         226.23          74.45          42.06         106.30        3542.03         433.64
         293.91           7.05         558.52        -498.19        3629.77         505.05
          17.16          70.05        1511.36       -1378.36        3770.86         641.85
         145.38          76.27          80.19         -93.44        3782.68         638.48
         601.12          18.51        2199.85       -2197.02        3368.63         108.69
          72.40          29.60         425.75        -328.40        3791.72         685.76
         535.02           5.50        1341.56       -1752.82        3861.81         717.88
          72.07          72.18        4775.80       -4307.21        3378.25         217.48
         281.24          33.27         852.37       -1251.47        4075.67         851.90
        1244.10          23.64        3507.25       -4339.98        3556.06         452.83
         366.99          11.39        2510.96       -2331.92        3433.67         256.19
         480.69          47.86        3097.53       -4253.04        4618.02        1152.58
         318.30          83.65        1613.58       -1827.03        3802.60         658.15
         131.93           4.05        2552.93       -2139.88        3442.05         280.57
         423.45         373.03        1231.22       -1817.66        3781.03         679.60
         188.06          21.94        1196.52       -1069.73        3654.26         552.97
          65.56          57.21         158.54         198.97        3510.80         355.81
         212.30         420.68        2395.16       -2593.87        3556.80         457.90
         217.22         121.67        1111.67        -882.31        3422.83         249.04
         382.19         213.25        1314.00       -1516.53        3598.16         502.37
         180.61          33.48        1825.64       -1483.19        3434.53         284.79
         522.43         294.47         953.39       -1501.62        3722.41         622.76
         109.40          25.43          57.92         144.91        3653.43         555.55
         796.93          61.85        2291.30       -2824.14        3665.14         561.58
         153.58         401.99         849.20        -810.32        3396.62         221.91
         758.32          98.24        2288.32       -2726.66        3572.83         473.80
          71.15          23.10         664.16        -482.61        3715.27         583.06
         336.83         242.20        1446.48       -1648.56        3614.13         523.79
         506.97         183.03         487.38        -674.63        3488.31         390.22
         575.77         214.24         720.40       -1235.88        3716.53         630.71
         252.45           8.95        2600.10       -2331.96        3461.52         309.16
         193.95          29.82         733.11        -371.09        3405.28         215.61
         438.74          76.13        2765.69       -2894.51        3605.02         504.63
         423.61          50.18        1789.47       -1756.48        3484.29         383.24
          74.88          81.23         377.14          80.00        3377.83         198.27
         261.17         210.76         201.33        -311.14        3628.97         555.13
          43.73           6.04        4113.33       -3793.91        3621.89         521.44
         171.03          78.64        5045.53       -5146.15        3842.01         740.75
          33.65         185.32         401.02         -40.87        3411.97         258.42
         357.59         477.40         142.89        -598.55        3611.73         517.01
         491.27          46.91         653.13       -1029.89        3829.66         706.61
         233.09         258.87         722.75       -1637.67        4414.05        1061.32
         167.46          30.07         846.70        -762.03        3708.88         589.66
         247.42          61.68         847.39        -846.83        3681.41         578.14
         302.90         123.28        1067.16       -1214.56        3712.29         604.11
         160.84          27.32        1602.57       -1629.68        3830.02         699.88
         594.33         133.06        2552.91       -2793.62        3504.40         353.03
          87.08          34.36        1997.93       -1565.82        3437.53         289.21
        1051.71         301.76         845.88       -2707.04        4498.76        1089.81
         537.33         115.80         271.50        -666.36        3732.80         626.99
         312.69          51.84         167.93        -115.48        3574.10         452.59
         185.66          64.14         795.76        -423.69        3369.22          90.72
         703.81         159.01        1033.26       -1399.43        3494.44         360.96
         362.36          24.80        1909.48       -1875.26        3569.71         457.40
         186.23         415.22        1854.99       -2490.59        4025.23         843.86
        1168.68         122.66        1739.21       -2767.76        3728.27         602.65
         195.34          29.33         356.66        -226.34        3636.08         565.93
         339.86         338.40         607.84        -815.33        3520.31         392.79
          99.32          85.15          48.01         212.45        3546.14         420.60
          27.55         354.88        1501.89       -1714.01        3820.79         687.42
        1401.15         123.43        1669.52       -2752.11        3549.08         434.57
         205.98          21.20         365.64         -52.92        3451.14         345.24
         415.44          26.29        3748.42       -3539.61        3340.54          95.55
         813.78         707.27           5.23       -1152.90        3617.69         527.34
         634.30          10.61         399.75        -473.97        3420.39         199.55
         282.54         351.86         840.05       -1442.53        3959.13         792.01
          51.56         148.58        4072.07       -3998.52        3717.39         617.03
         395.67         137.08        2053.31       -2124.88        3529.88         399.74
         472.23          14.38        1441.23       -1639.62        3702.84         601.57
         280.02         279.24         550.97        -628.27        3509.11         396.60
         251.08          93.39        1569.98       -1350.41        3427.03         292.41
         502.56          87.20         259.37        -247.63        3389.57         160.62
         299.55         119.55         199.94         -75.57        3447.61         292.93
         943.84         210.41         733.35       -1495.23        3598.71         488.99
         134.11          19.46         348.00        -274.91        3764.43         663.50
          62.61         137.53         153.49         204.46        3432.96         332.20
         481.62         242.06         512.04        -810.08        3565.44         484.99
         379.20         234.05         462.35       -1212.68        4128.15         893.17
         322.98         203.67         296.89        -236.01        3403.56         236.52
         637.78          80.76         321.31        -705.95        3657.17         556.37
         255.00         302.95         778.17        -798.61        3453.56         312.50
         277.50          43.54         521.25        -421.17        3569.94         434.39
         565.14         101.89         969.27       -1168.44        3523.23         381.84
         551.31         182.82        1115.55       -1288.37        3429.76         275.87
         162.24         148.98        1476.86       -1289.82        3492.82         343.62
         646.53         169.32         111.09        -474.56        3538.69         442.29
         337.44         125.04        1207.07       -1242.69        3564.22         471.12
         257.14         410.85        1460.40       -1604.69        3467.38         368.06
          78.53         230.55         222.34          64.53        3395.12         187.30
          62.77         179.74        1506.73       -1212.59        3454.45         289.18
         530.69         157.47        2322.43       -3161.63        4142.11         880.92
        1092.46         138.86        1742.24       -2656.38        3673.89         561.29
          52.54          37.18         849.76        -391.79        3443.39         288.80
         285.19          39.19         631.37        -488.91        3524.24         409.79
         180.53         251.15         550.44        -658.72        3667.66         560.39
         293.04           4.16        2852.03       -2742.72        3584.57         493.57
         360.37         127.49        1907.82       -2896.25        4491.65        1103.92
         403.89         265.49         781.81       -1252.82        3792.72         690.87
         163.96         380.64        1611.17       -1883.45        3718.74         622.79
         476.56           1.78        1414.58       -1424.93        3523.08         335.41
         368.98          62.09         430.37        -250.62        3380.25         228.53
         153.01         109.94        2954.23       -3162.98        3936.87         769.27
           5.47          32.23         963.66        -462.08        3451.79         325.96
         273.85          77.68        1129.77       -1044.53        3554.33         433.39
         485.86         313.78        2034.61       -2494.49        3651.32         561.50
         393.59         253.72        2755.62       -3003.54        3591.66         484.25
        1157.13           7.06        1250.45       -2123.80        3700.21         601.10
         459.36          52.30          15.05        -472.87        3937.23         772.69
         486.59         199.98         262.60        -473.14        3515.02         409.07
         446.49          56.64        1014.76       -1000.06        3473.24         379.45
         153.54          84.44        1438.89       -1224.78        3539.01         417.76
         377.27          43.52        3165.27       -3590.47        3995.48         824.74
         810.94         147.14         846.94       -1413.41        3599.46         493.92
         496.03          37.38        1769.87       -1783.04        3470.84         361.94
         377.41         127.02        1700.80       -2210.97        3996.81         811.08
         850.51         121.26        1209.76       -1918.67        3728.19         590.45
         231.14          26.88         911.00        -673.28        3495.34         401.04
         177.09         155.03         368.60        -322.94        3613.29         518.61
        1294.29         331.45        1087.96       -2526.60        3803.98         680.31
         437.73          22.39         719.79        -951.33        3762.50         656.08
         478.57         105.80        2562.47       -2616.45        3460.67         278.74
         602.66         189.15         707.19       -1154.98        3647.05         527.60
         218.27           3.49        2542.61       -2191.75        3418.46         215.11
         132.82          78.65         879.72        -634.50        3534.38         407.95
         797.61         216.70        1747.92       -2680.52        3909.37         751.10
         712.13           5.33         154.94        -258.00        3376.68         238.08
         721.93         211.39         552.46       -1424.96        3930.24         785.34
         518.66           7.84         380.84        -310.81        3394.54         201.53
        1059.63         112.44        1495.99       -2669.13        3992.13         808.05
         355.16         240.08        2402.38       -2564.73        3558.19         456.95
         151.06         617.25        1642.13       -2179.43        3760.05         618.64
         610.03         156.91        1001.59       -1214.83        3437.36         305.23
         266.78          63.19         542.58        -760.79        3879.33         741.66
          24.69         110.74        1177.57        -946.54        3624.62         535.75
         180.25          24.41        1939.90       -1672.38        3518.89         372.75
         142.78         341.99        3469.48       -3440.01        3476.83         296.67
         497.77          45.71         415.44        -586.56        3618.70         548.39
         337.20          85.84          11.69          68.70        3487.65         388.05
         301.53         108.29        1151.36       -1043.06        3472.96         292.45
         693.82          79.39        2316.25       -2550.80        3452.42         341.73
         299.38          20.51         535.99        -644.89        3780.10         631.93
         318.87         136.47        1587.36       -1469.68        3418.05         275.70
         257.42         642.84        2280.90       -2619.76        3429.68         334.73
         118.32         144.12         699.24        -466.45        3495.85         332.32
         498.14           2.59        5322.40       -5181.18        3349.13         104.96
         433.83          42.62         929.41        -808.31        3393.51         190.80
         275.83           8.88        2089.41       -2119.76        3736.74         611.95
         416.53           7.57        1175.36       -1198.36        3589.96         505.86
         592.66           2.29         925.37       -1045.23        3515.96         376.43
         540.44          55.73        3370.81       -3408.10        3432.21         341.06
         209.98         162.67         936.44       -1181.65        3863.63         731.56
         544.54          69.30         633.36       -1103.62        3847.49         740.74
        1547.30          93.36         262.09       -1288.51        3376.83         125.10
         103.22         133.50         237.63          74.39        3442.34         299.01
         385.84          72.45         336.19        -213.38        3409.99         261.74
          87.40          53.14        1409.85       -1431.25        3871.93         746.02
         630.02          71.51        1131.22       -1636.47        3794.81         679.69
         282.53          10.92        1571.81        -299.16        2424.97         277.79
         336.62           7.98        1969.34       -1971.01        3648.14         541.46
          57.43         257.68        1823.85       -1724.22        3576.33         467.94
        1188.13          32.24         466.71       -1183.91        3487.90         386.71
         432.08          89.06         115.25        -502.76        3857.44         754.01
         961.88         312.90         313.83       -1353.67        3756.14         644.82
         295.82         138.03         457.27        -410.49        3510.44         394.67
          75.45          72.86        1070.47        -719.98        3492.29         432.90
        1475.80         139.25        2656.75       -3998.88        3718.15         607.16
        1385.65          39.47         101.74       -1187.61        3651.83         549.98
          59.33          15.96        1176.30        -872.06        3611.55         512.52
         241.80         303.27        1849.01       -1823.46        3420.46         302.87
         471.60          11.90         621.23        -593.17        3479.50         343.11
        1411.95          10.88        1020.16       -1957.04        3505.13         390.34
         262.39         213.47        2928.41       -3382.47        3969.25         818.35
          12.06         241.36        1343.24       -1032.45        3426.87         319.98
         393.93          27.04        2015.61       -1854.08        3408.56         195.02
         484.29          98.87        2497.38       -2840.78        3751.32         628.75
         501.56         250.58         306.37        -704.42        3636.97         535.21
         893.98         500.46        2585.24       -4061.17        4072.56         869.03
         123.01          17.53        2763.34       -2624.92        3712.12         593.50
         150.11          95.05        1766.86       -1754.09        3733.15         631.44
         448.75          99.87         979.53        -906.94        3369.88         178.97
          60.37         208.12        2078.94       -2289.07        3932.72         760.26
         850.36         225.25        3173.00       -4385.40        4127.85         895.21
         310.54         727.60        2970.42       -3511.63        3494.13         392.74
         112.08         134.84         829.60        -511.40        3425.95         296.99
         581.32         132.70         344.51        -595.44        3527.98         417.54
        1097.04         103.97        3245.45       -4023.45        3568.06         469.53
         276.65         112.08         975.49        -820.87        3447.74         279.96
         704.43          38.41         946.61       -1140.18        3441.80         335.28
         698.54         200.67        1711.01       -2091.57        3472.43         355.07
         979.87          35.00        3678.07       -4098.23        3396.37         230.90
          75.89         134.50        1332.60       -2038.17        4486.25        1096.55
         217.07          83.55         329.60         -57.51        3418.36         238.12
         187.84         774.14        1817.54       -2270.83        3482.38         316.65
          90.16         105.57        1965.57       -1559.54        3389.32         199.08
         405.68          18.24         353.36        -288.65        3502.46         380.12
         492.61         412.28        1743.36       -2494.80        3837.61         688.15
         449.70           6.81        1300.63       -1405.07        3639.00         535.02
         244.75         205.09         337.98        -252.09        3455.34         270.85
          57.46          17.18        1299.79       -1003.63        3620.28         536.39
         783.26          10.09         144.03        -351.14        3404.86         168.04
          81.99         174.20        3252.90       -3481.07        3963.04         797.81
         821.67         147.08        2104.79       -3018.63        3936.16         788.13
         264.59          37.71         747.59        -476.99        3418.18         208.92
         180.36         229.62         714.00        -790.97        3658.07         570.07
          84.47           7.45         882.85        -532.18        3548.49         445.36
         349.27         342.69         160.96        -444.32        3582.46         469.26
         613.80          86.70         529.99       -1573.11        4333.68        1003.23
         424.28         105.01        1542.80       -1513.35        3432.36         317.09
         151.18         335.96         697.54        -678.86        3485.28         350.63
          23.20         126.51          87.74          89.16        3664.45         561.37
         388.67         275.30        1240.30       -1671.35        3758.15         644.22
         457.84          68.59        2381.23       -2529.60        3613.02         523.95
         129.50         244.25        1150.08       -1204.61        3671.86         573.69
        1177.94          10.90        2117.81       -3184.30        3868.72         718.80
         386.29          83.61         799.14        -776.67        3498.69         454.72
         551.29          18.70         734.14        -710.68        3397.63         214.92
         416.56         159.14         485.13        -554.86        3485.12         382.57
         113.72         194.78        1313.18       -1269.09        3638.47         540.62
         860.09          65.64        1713.79       -2041.61        3393.16         207.59
         131.93         210.07        1991.73       -1899.11        3556.46         472.63
         653.25          31.09         472.45        -934.70        3768.99         669.94
         216.62         125.43        2232.06       -2084.80        3501.77         383.63
         472.23         343.93        1109.02       -1630.66        3696.55         618.52
         247.80          61.40        1547.65       -1543.87        3678.10         591.43
         304.15          90.71          95.79        -791.46        4291.86         990.30
         400.65           8.67        1203.27       -1269.11        3647.61         541.82
         353.24          83.06         725.38        -680.63        3510.02         414.64
         809.87          14.33         121.78        -434.08        3479.16         343.13
         506.29           2.86         468.83        -435.28        3448.37         319.77
         110.89         126.26        1472.82       -1190.56        3471.66         336.00
          84.78          77.87        1989.21       -1753.24        3592.45         509.24
          93.30          16.43        1578.96       -1105.64        3408.01         251.31
         235.33          86.72         435.63        -342.24        3575.61         477.52
         730.79         116.34         731.53       -1182.36        3594.77         499.42
         529.09         122.48        1570.79       -2065.27        3833.99         731.17
          64.06         223.74        3506.60       -3638.50        3835.17         701.58
         149.64          31.53        2024.56       -1749.30        3534.65         441.47
         518.82         128.03         341.30        -453.53        3456.46         396.01
         215.86          47.36        1336.54       -1140.27        3531.59         436.34
         506.64          55.85        1477.61       -1797.25        3748.20         631.17
         326.59           4.77        3348.44       -3218.24        3529.53         452.59
         257.01         157.91         580.53        -507.58        3503.18         353.75
        1014.31         264.75          65.24        -892.80        3539.58         405.51
         179.31          93.64         636.18        -356.30        3438.24         348.61
         672.03         168.74         193.51        -511.47        3468.28         355.75
         784.79          75.31        2010.95       -2432.07        3552.09         460.34
          46.43         475.93        3300.84       -3508.48        3676.38         590.43
         311.39         128.39         117.54        -229.60        3663.35         566.78
         255.15          59.95        3572.34       -3278.23        3381.85         148.33
         512.12           8.33         553.82        -875.99        3792.79         669.44
         936.11         138.76         567.49       -1260.28        3609.00         501.03
         977.00          93.84         275.84       -1138.46        3782.85         662.07
         172.28          55.38        2443.28       -2162.02        3482.16         368.38
          66.33          86.71         505.44        -420.03        3752.63         625.89
         535.83         163.58        1814.41       -2083.12        3560.37         499.06
         111.41         109.95        2514.42       -2263.65        3518.94         485.32
         138.01          72.88        1391.17        -962.15        3351.16          77.18
         150.01          99.16        3999.96       -4754.43        4496.37        1094.92
         256.29          97.52           6.66         159.01        3471.59         351.37
         436.48         342.17         230.25        -456.63        3438.79         288.07
         139.28         160.31        2156.23       -2201.06        3736.30         650.40
         122.56         146.40         650.76        -614.05        3685.41         595.12
          15.19          24.85         170.80         318.04        3462.20         327.62
          49.20          43.60        5999.29       -5760.93        3659.90         566.12
         624.98         224.51        1092.05       -1675.50        3725.04         666.12
         431.49         138.15        1826.94       -1841.15        3435.68         310.55
         151.40          71.31        1648.07       -1602.62        3722.92         614.98
        1149.31          10.63          93.78        -775.94        3513.30         414.19
        1090.33         121.60        1521.17       -2217.83        3475.80         355.82
         351.66         178.18        2715.06       -2970.42        3716.61         639.09
          75.30         159.26        2500.59       -2191.89        3447.82         305.46
         291.03         441.50        4807.60       -5102.38        3553.34         428.42
         152.55           6.17        1446.02       -1086.59        3472.94         343.71
          74.64         263.33        1475.96       -1365.34        3542.47         464.10
         726.56         134.99         209.84       -1033.09        3952.78         817.05
         277.63         274.27        4328.35       -4811.10        3921.92         765.07
         187.22          96.78         750.73        -645.56        3601.91         501.08
         221.75         110.87          12.61         253.23        3392.62         218.38
         197.31         107.72         816.33        -992.26        3861.99         706.86
         151.36         157.10         262.95         -20.90        3440.57         306.63
          72.54          29.79         541.81        -231.72        3578.68         487.73
         855.50         202.43        1400.46       -2137.03        3669.70         567.49
         527.73         133.04        5310.53       -5521.73        3541.50         422.83
          45.94         343.66        1596.82       -1437.64        3442.30         284.93
         296.54         228.82         214.53        -459.32        3710.50         612.45
         632.26          75.29         317.15        -728.33        3694.70         611.13
         183.81         107.85        1146.11        -842.00        3395.32         199.03
         121.55         677.01         654.81       -1409.63        3947.33         772.82
         397.11          38.80         689.15        -771.33        3637.36         530.78
         826.27          84.06         616.50       -1021.28        3485.52         353.11
         344.10          44.07         565.55        -727.00        3764.36         664.33
         273.88         233.71        1225.72       -1593.41        3851.18         723.13
         629.37           8.41         986.24       -1239.23        3606.28         549.26
         128.88         155.38        1011.85       -1192.31        3887.26         758.55
         193.21          33.50         709.07        -646.16        3701.46         630.06
         376.83           7.02        3559.63       -3415.47        3463.07         293.97
         539.79         269.76        1872.52       -2270.90        3579.90         484.89
         130.77          54.41           1.47         303.94        3500.47         401.07
         982.23          88.64         246.53        -802.27        3475.95         333.67
         226.88          28.48         836.89        -551.87        3450.72         218.79
         655.62          73.37        1021.75       -1484.79        3725.13         630.50
         726.68         350.70        1213.58       -1994.57        3694.67         574.99
         399.67         547.74          24.05        -643.46        3663.06         592.37
          18.25          28.87         146.71         230.29        3566.98         495.12
         138.10          14.16        2530.15       -2920.56        4229.22         968.68
         749.56          73.79         528.04        -875.50        3515.19         394.49
         894.66          73.59           3.81        -461.94        3480.95         363.65
         317.22          89.41         296.44         -87.05        3375.05         187.94
         174.69          13.59        2886.94       -2489.17        3405.02         183.98
         226.90         180.57        1408.83       -1248.35        3423.12         276.67
         506.29          28.86         134.42        -697.62        4019.12         831.13
         131.71         374.62        2836.40       -2804.10        3452.44         286.68
         375.11         139.62        1612.37       -1645.51        3509.49         428.57
         158.25         157.71          50.55         -40.87        3665.43         568.38
         452.10          74.53          24.21         -17.88        3458.12         337.83
         538.41         129.05         801.26       -1090.94        3613.30         496.60
        1095.02           6.03        1090.98       -1600.82        3399.86         121.98
         539.39         140.88         314.95        -856.94        3852.80         705.58
          75.82           4.04           9.95         381.55        3519.72         396.82
         124.56          62.19        1310.88        -997.12        3490.57         391.87
         166.71         186.86        2022.91       -1839.07        3453.66         319.30
         563.14          85.28        1055.67       -1252.57        3539.55         399.60
         217.16          61.36        2769.91       -2631.54        3574.18         490.43
         528.44          69.73        1324.50       -1853.58        3922.00         785.27
          34.16          63.06         424.98        -358.93        3827.81         718.07
        1103.60         164.53        4430.58       -5137.81        3430.17         260.30
          39.53         118.58        1166.38        -771.11        3437.69         266.49
          29.87         189.81        1752.86       -1417.96        3436.49         330.92
         473.05          45.61        1079.69       -1257.11        3649.83         561.28
         313.38         181.40        1311.81       -1475.84        3660.34         580.92
         155.77          56.35         818.17        -472.72        3433.50         284.21
         527.27         199.03        3043.57       -3661.25        3882.44         740.61
         260.49          58.26        2289.51       -2321.51        3704.32         600.91
         520.46          16.49        1436.44       -1499.84        3517.51         404.41
         500.66          13.99         301.77        -500.76        3675.40         582.79
         253.98         187.21          90.36        -688.98        4148.50         907.51
         298.69          16.32        1583.72       -1623.54        3715.87         618.94
         316.76         208.38        1713.26       -1656.56        3409.24         247.17
         304.69           8.73        1138.04       -1153.86        3693.48         572.96
         123.69         561.36         415.55       -1239.99        4130.46         903.21
         976.50         222.75        2582.81       -3257.28        3466.27         364.59
         787.32           1.59        3263.82       -3496.29        3434.63         252.60
          36.43          93.73         457.29        -222.67        3626.29         539.78
        1646.82         358.16         128.82       -2248.54        4105.82         891.06
          62.41         171.93        1052.69       -1234.96        3939.01         784.89
          50.96         514.61         730.04        -898.25        3593.71         519.09
         267.83           4.27          16.84         -60.74        3762.87         671.13
         152.54          41.72        2164.35       -2181.28        3813.72         697.20
         615.93         257.03          31.83        -731.08        3817.37         687.35
         171.84         149.33        1588.91       -1346.39        3427.39         270.57
         818.95          32.66        1682.82       -1941.47        3398.10         230.83
         406.50          51.70        2208.77       -2088.10        3412.20         254.55
         275.67         135.71        2886.20       -2887.03        3580.50         506.07
         168.91         306.82        2305.16       -2423.61        3633.79         541.28
         862.37         361.99         560.30       -1293.47        3499.89         393.76
         404.70          34.07        4238.37       -5024.72        4338.64        1030.25
         313.23         210.36         675.88       -1069.52        3861.13         721.23
         553.42          18.72        3569.48       -3605.86        3455.31         228.26
         236.21         480.53        1531.13       -2047.95        3791.13         678.06
         345.22         105.44        1326.17       -1265.64        3479.88         365.77
         369.35           9.68         358.77        -342.58        3595.84         490.07
         198.74         149.15         606.34        -437.53        3474.36         366.69
         371.31         370.35         283.21        -660.46        3626.67         504.00
         157.22          97.52        2105.44       -1876.82        3507.70         385.50
         184.73         272.08         328.76        -215.07        3420.57         313.67
         374.03          17.03         419.52        -352.86        3533.35         449.39
         320.79         117.98         130.65        -124.97        3546.63         431.04
         216.64          67.46        1183.89        -958.66        3481.75         380.61
         343.85         317.42        2955.94       -3105.46        3479.31         322.72
         444.95         262.00        1943.24       -2317.41        3658.29         528.46
         164.76         123.73         142.44        -172.61        3732.75         633.35
          31.30          27.31        2066.58       -1710.64        3576.52         492.52
         514.83          71.34        3192.43       -3228.71        3441.17         294.76
          55.05         206.11         885.01        -629.53        3474.44         311.16
         464.50          31.63         239.01        -718.79        3974.72         825.33
         805.78          30.55         413.59        -740.79        3481.93         370.09
         102.12          56.57        3237.70       -3076.54        3671.21         591.11
         181.71         231.76         933.54       -1127.47        3771.52         667.52
         107.73         205.80         376.64        -127.00        3427.92         243.02
         655.23         188.24         688.09       -1420.96        3880.50         756.92
         107.30         156.46        1157.19        -971.88        3541.99         429.38
         321.96         127.29         990.96       -1396.88        3947.74         797.36
         311.45         279.22        1959.69       -2213.72        3654.45         567.42
         416.87          46.03        2934.76       -2852.03        3445.44         238.86
          71.82         102.48        2178.83       -1965.21        3603.16         502.90
         402.83         352.58        1446.69       -1817.80        3606.77         507.01
         210.10          79.79         128.83         -12.53        3584.89         500.70
         201.84         446.52        1484.00       -1788.43        3647.15         537.19
         275.02           2.99         839.56        -708.71        3582.22         473.30
         507.86          23.58        3084.11       -2990.07        3365.60         213.92
         221.38          32.81        1429.10       -1443.21        3750.99         631.70
         962.84         101.32         394.15        -896.84        3429.60         295.40
         145.54         152.39        2416.94       -2319.62        3595.83         487.76
         407.83         330.63        1950.60       -2120.32        3422.34         269.22
         350.62         100.29        1860.99       -1866.71        3545.88         413.63
          99.88          26.18        2898.30       -2458.77        3425.50         295.97
         188.31         202.60         453.31        -345.82        3492.68         307.00
         508.81          17.46         690.61        -723.42        3497.61         371.37
         679.15          45.47         393.88        -508.00        3380.56         175.77
         378.77         134.42         692.65        -651.24        3436.50         305.21
          16.15         224.18         844.66        -686.77        3592.88         506.31
         129.87         239.31        1669.81       -1872.03        3824.10         693.14
         532.52          31.44         223.20        -451.53        3655.44         549.34
        1458.47         140.51        1485.63       -2928.37        3834.85         687.18
         535.01          49.87        1094.03       -1065.16        3377.33         195.69
         343.47         151.38        2737.45       -2739.62        3498.38         420.90
         954.45         276.45         577.42       -1972.50        4155.24         907.46
         254.96          16.27        1753.13       -1424.66        3391.37         189.66
          14.35         112.58        2971.29       -2752.39        3645.26         574.41
         255.68         129.85          84.49          69.77        3451.29         356.24
         115.28         487.72         469.58        -668.29        3586.79         538.53
         330.64          50.07        1097.52        -955.14        3467.97         324.81
         190.34         136.50         191.39        -798.18        4271.02         983.96
         559.34         155.14         139.62        -275.72        3412.70         245.53
         310.65           9.90         141.26          62.99        3466.27         316.98
         224.54          38.86         867.47        -659.41        3519.63         421.64
         185.73         752.84        3172.00       -3721.16        3601.68         470.12
         794.71         816.35        1251.58       -2328.86        3457.28         318.90
         141.95          92.82        3523.06       -3499.84        3733.11         623.91
         332.13          17.54        2194.03       -1974.56        3421.95         302.20
         576.69          12.42         422.44        -401.90        3381.44         173.32
         543.68         104.14        2984.35       -3084.80        3443.71         261.32
         890.18         179.33        1682.74       -2185.18        3423.99         276.42
          96.53          17.73        2589.93       -2101.38        3388.27         196.67
          43.02         228.39        2059.70       -1736.63        3396.62         251.26
         797.15         275.63         559.50       -1070.25        3429.04         294.51
         372.15          87.07           3.39         -82.53        3610.99         473.13
         572.72          67.29        2849.04       -3036.47        3538.49         407.04
        1416.36         181.07         620.77       -1908.10        3680.96         569.17
        1221.47         422.42         424.45       -1719.66        3642.38         576.53
          80.84         221.67        3661.28       -3610.58        3637.86         554.71
         300.34         161.12        1938.06       -1898.35        3489.92         366.71
         932.13         177.05        3034.64       -3568.65        3415.91         293.08
        1180.15         158.64         524.45       -1271.35        3399.17         270.12
         361.96         369.03        1672.62       -2194.98        3782.45         670.81
         187.07          50.73          64.98        -185.89        3874.19         725.76
          53.21         103.10         957.79        -733.64        3610.62         524.14
         524.24          32.33         812.71        -770.71        3392.52         211.81
         608.08          10.57        1153.81       -1290.08        3508.70         397.69
         272.94         110.28          35.19           2.17        3570.50         489.96
           1.25          21.18         927.88        -554.89        3595.66         476.92
         781.73         694.87        1642.84       -2627.99        3499.60         401.22
         795.12          71.94         159.71        -991.59        3955.89         806.64
          81.28          11.36        3315.11       -2887.15        3470.46         376.14
         669.78          21.91         279.10        -455.72        3475.98         382.96
         428.84          10.44         743.30        -824.86        3633.34         527.03
          46.23         111.11        3231.25       -3155.51        3758.01         666.81
         466.41         221.84         171.48        -332.38        3463.72         337.72
         482.81         178.11         879.01       -1242.10        3693.25         584.20
         985.59         301.01        2007.73       -2716.79        3413.54         266.58
         308.88         269.68        1744.61       -1798.09        3466.00         381.37
         343.46         245.82        2110.57       -2267.25        3558.47         462.34
          47.70         143.26        1882.39       -1560.70        3478.43         328.59
         623.18          25.60        1403.68       -1947.55        3886.15         755.42
         230.18          13.59        4177.79       -3876.92        3446.42         290.19
         125.82          70.11          20.59          75.43        3699.13         581.12
          73.43         129.62        1796.84       -1469.60        3460.78         390.17
         124.47          92.65        1998.12       -1657.19        3433.01         229.98
         305.62         279.16         810.37        -898.74        3494.67         392.44
         974.53         166.91        1694.02       -2335.24        3490.84         356.13
         219.95          21.51        1139.56       -1649.74        4259.78         973.57
          83.45          23.20        1996.18       -2107.36        3995.60         819.82
         305.93         135.20         277.06        -133.63        3406.51         236.34
         458.14         155.19         804.69        -970.32        3543.37         437.72
         146.12         136.66         414.57        -494.15        3787.88         673.65
        1142.70          98.00         936.73       -1751.68        3565.32         457.57
         583.16           8.56         788.96        -744.62        3355.01         153.36
         256.10         118.33        3932.71       -3994.66        3678.57         566.63
         656.73          26.98        2349.40       -2577.46        3535.44         371.50
         402.94          98.87        1276.97       -1371.19        3583.48         495.34
          82.35         103.03        1195.42        -855.92        3466.18         327.30
         457.84          81.53        1948.87       -2238.24        3741.08         641.39
         589.37          44.23           5.20          27.29        3324.99         187.26
         376.76          88.13         153.93        -105.16        3477.41         354.28
         771.47         131.07        1882.48       -3123.73        4329.77        1020.93
          14.44         150.48         498.92         -74.80        3402.04         229.44
          61.63         423.54         373.55       -1053.98        4186.33         941.04
         128.80         129.37          61.31          35.96        3635.63         503.72
         484.30         111.85         901.59        -939.70        3433.04         285.18
         385.54         157.49        2080.18       -2065.82        3433.68         295.14
         111.49         190.47         161.32        -298.32        3826.10         704.15
         304.32         167.95         394.15        -520.43        3645.09         554.65
         991.93         172.41        2670.05       -3340.31        3496.99         375.32
         481.14          51.25         183.50        -262.65        3537.82         446.40
          19.78          60.06         231.23         185.83        3494.18         410.55
          57.91         113.02        1982.02       -1765.67        3603.80         504.27
         437.61          35.03         804.49        -960.00        3673.96         571.51
          77.27         341.34         322.65        -501.25        3751.07         659.11
         566.90         160.82        1135.31       -1594.93        3722.97         632.34
         660.19         188.97         121.40        -751.17        3771.67         654.12
         102.92         347.20        1431.54       -1415.51        3524.92         402.92
         178.94         142.70        2501.04       -2623.11        3791.50         669.38
         253.32         168.51        3275.38       -3101.31        3395.17         221.67
          91.72          25.44        1345.79       -1134.42        3662.55         573.73
         690.28          81.74         238.86        -507.45        3487.64         368.22
         214.96          44.81         954.89       -1038.10        3814.53         701.97
          43.39          60.57         804.57        -466.33        3548.88         468.78
         414.99          40.13         324.87        -785.33        3996.43         820.89
         571.92           5.40         198.68        -315.31        3530.39         444.24
         153.51         724.34          33.20        -699.28        3779.31         692.09
         500.36         246.55        1199.88       -1586.82        3631.11         540.27
         921.08         143.86         850.80       -1573.83        3649.14         570.46
         187.76         248.59         881.00       -1113.82        3787.56         634.24
         221.89          76.59        1561.40       -1980.95        4112.15         894.90
         608.91         103.75         330.12       -1150.32        4098.58         903.03
         198.23         181.91        2355.24       -2589.41        3845.11         723.08
         203.30          77.33         681.60        -419.68        3448.53         300.32
         535.78         345.80        2069.16       -2429.86        3470.20         397.19
         417.12          14.65        4567.07       -4773.92        3766.16         695.19
         111.80         327.96        3103.62       -2935.01        3382.72         210.76
         298.15          21.34        4040.44       -4093.18        3724.35         581.54
         547.53         225.88         290.43        -924.99        3852.21         724.12
         216.67          71.27        2167.92       -1905.23        3440.45         304.66
         581.25         118.02          11.47        -235.24        3515.55         405.61
         666.52          56.07        1009.39       -1734.86        3993.95         812.79
        1468.92          72.24        1110.77       -2466.71        3805.87         692.66
         102.90          81.90         876.87        -465.97        3395.37         120.76
         515.33         159.92         409.09        -672.16        3578.89         500.17
          68.62         745.72         887.97       -1378.09        3666.86         567.97
         535.18          44.92         848.53        -904.10        3466.54         321.51
         417.03         207.89         266.17        -445.56        3545.55         455.45
         493.07          73.94        4641.96       -4583.90        3366.01         159.24
        1358.47         285.29         333.66       -1443.57        3457.23         329.40
          43.86         136.39          67.69         151.01        3592.13         528.12
         722.02         114.36         211.66        -522.44        3465.48         409.37
         281.83          15.64        1423.25       -1294.48        3564.83         462.15
         411.26           9.89         558.67        -510.04        3521.29         419.70
         225.15          31.97        1380.69       -1064.90        3418.16         236.70
         362.11          98.71         615.54        -567.67        3482.37         335.26
         228.47          13.97        3157.30       -2818.73        3410.07         259.33
         433.47         385.17        1328.92       -1689.03        3532.55         445.38
         659.88         183.91         813.26       -1246.94        3580.95         499.53
         200.91         120.18         729.40        -724.99        3665.58         584.91
         201.04          79.31          75.17         207.79        3427.76         289.64
         452.11         123.57         319.22        -318.08        3414.28         267.49
         242.94         100.92         455.31        -164.02        3355.92         106.42
         154.35          12.90         764.02        -710.99        3770.79         651.80
         146.94          42.29        1190.87       -1173.75        3784.73         676.94
         540.22           2.22        1475.18       -1520.00        3493.46         327.06
         530.35          79.67         131.76        -602.53        3851.83         731.60
          95.63         168.58        1573.98       -1296.87        3449.74         318.61
         231.58          27.71        2792.12       -3072.69        4012.36         823.96
         310.66         239.22        1111.60       -1132.94        3462.54         380.85
         328.94          17.52        3559.66       -3478.48        3563.45         494.48
         192.46         180.37        2568.06       -2793.20        3843.38         716.38
         168.90         136.91        1154.24       -1008.05        3539.08         392.93
         432.00         346.72        1612.23       -1830.48        3430.61         300.48
         258.70         110.88         660.35        -815.90        3777.06         662.61
         179.06          55.27        1109.44        -711.82        3359.11         250.88
         182.61         370.56         561.76        -786.98        3663.13         546.37
         209.82         144.02        4414.29       -4588.50        3811.45         708.09
         826.40          68.93         192.25        -771.88        3675.38         595.54
         274.92           7.49          16.64         151.80        3540.20         450.17
         270.24         155.65        3807.41       -3640.58        3398.37         313.22
         391.01         240.77        2129.75       -2332.83        3562.36         481.00
         661.56         111.75        1445.26       -1630.43        3402.93         222.15
        1457.58          81.04        1699.67       -2672.14        3424.91         299.06
        1559.17          36.52        1840.52       -3070.64        3625.49         551.59
         466.67         234.81         702.59       -1268.41        3855.42         707.10
         506.12          51.06         516.72        -674.88        3592.05         495.32
         122.92          40.73        2570.41       -2233.03        3490.05         406.59
          46.99          46.55        1731.86       -1305.18        3470.87         356.47
         830.77          68.05         857.02       -1382.78        3618.02         456.41
         301.87          26.13        1299.47       -1102.11        3465.71         363.59
          93.59          12.15          27.63         445.83        3411.87         269.28
         125.04           5.78        1625.70       -1261.85        3496.42         394.29
         996.68         280.53         858.19       -1759.96        3615.64         528.38
         369.80          62.80         780.74        -771.48        3549.21         481.15
         187.41         216.10          27.11        -340.82        3901.29         748.67
         107.10         373.54         659.73        -895.45        3746.14         658.16
          23.82          69.50         357.94         140.47        3399.35         305.45
         287.82          28.63        1982.23       -1867.18        3559.58         472.30
          87.06          17.60        1108.91        -857.53        3635.03         551.38
          65.98           5.91        2402.09       -1885.33        3402.44         184.56
         220.74         734.27        1204.74       -2044.39        3875.70         745.44
          94.45          98.70        1595.86       -1289.53        3491.58         335.45
         591.67          60.96        3295.27       -3452.26        3495.43         367.00
         396.76         512.30        2280.67       -2820.53        3621.88         497.27
         201.82         117.94         436.26        -181.71        3416.76         246.18
         647.52         145.66        3062.39       -3318.53        3454.02         306.30
         808.01          50.09          75.98        -392.99        3449.97         321.72
         476.61           4.01        1144.95        -997.26        3362.76         129.08
          62.33         112.22         923.27        -869.17        3762.43         653.29
         185.91          65.12        1285.23       -1261.19        3716.01         624.52
         105.39         248.51         392.94        -330.30        3574.53         467.69
         342.83          88.59         473.67        -646.95        3732.93         628.55
         327.83          36.68        1544.06       -1814.43        3896.94         759.19
         386.67         241.59        3448.13       -3800.18        3714.88         608.62
         785.63         447.06          26.84        -722.31        3453.85         306.37
         478.94          25.67         292.76        -377.21        3570.91         504.19
         413.47          26.70         131.77        -146.87        3566.00         468.02
         260.28         219.42        1071.89        -953.62        3393.10         180.02
         182.98         225.29        1646.50       -1486.63        3422.93         216.05
         283.66           2.44         550.58        -357.47        3511.87         352.14
         676.49          25.10        1783.77       -1966.86        3472.57         355.35
         375.97         194.93        4191.65       -4213.75        3442.28         253.79
         939.57         170.00         536.89       -1131.28        3475.90         371.91
         466.16         988.00         646.27       -1521.88        3412.53         236.97
         123.63          72.99        2183.03       -3002.54        4613.97        1153.55
         188.27         106.05         895.98       -1184.90        3985.71         811.87
          51.57         238.47        2358.41       -2461.37        3803.98         683.72
         191.72         171.66         963.38        -816.02        3480.34         357.29
         646.81         267.96        2274.36       -2796.86        3598.80         507.16
         168.44         133.74         245.97        -170.43        3613.34         543.51
         142.52          19.78         247.58         -98.31        3679.51         639.74
          84.08           0.56         919.90        -936.03        3922.56         770.17
         339.84         137.62          23.91         -35.22        3524.92         439.19
        1085.58         235.01        1262.93       -2102.64        3510.20         370.64
         361.31          64.45         664.43        -643.55        3544.43         408.48
         394.19          26.37         592.01        -589.44        3567.95         482.76
          88.96         315.11         530.97        -469.54        3525.59         425.57
         287.57         504.67        3027.73       -3363.64        3534.74         434.62
         287.17         320.67         955.17       -1251.56        3679.64         567.09
         569.20         158.40         515.49        -779.84        3527.82         404.16
         402.18         149.46        1219.76       -1282.55        3502.22         388.49
         217.68         207.62        2093.84       -2431.48        3903.40         765.59
         143.60         203.83        1443.83       -1424.92        3624.74         541.45
         111.05         181.11         444.43        -126.79        3381.25         142.43
         203.81         264.13         830.12        -790.65        3483.64         384.24
          59.25         120.10        2530.85       -2540.47        3821.34         663.37
         471.95         221.63        1927.19       -2171.72        3542.03         484.52
         325.02          32.83        1949.52       -1851.39        3535.08         404.36
         128.09         125.36        1908.64       -1618.55        3447.52         297.17
         769.93         123.58         546.28        -887.02        3438.30         268.82
          83.48          25.06        1622.26       -1268.57        3528.85         432.41
         241.04          75.68         646.65        -822.19        3849.91         725.40
         328.41         279.95        5052.91       -5294.71        3624.52         512.37
         289.07         125.06         926.69       -1141.68        3791.95         669.86
         188.87          51.49        1820.85       -1633.28        3563.16         447.15
         727.61          10.84         888.84       -1270.61        3634.38         548.99
         393.91         174.99        1442.97       -1460.59        3439.80         324.00
        1124.28         103.19        2678.23       -3359.39        3444.75         306.53
         376.82         152.63         177.15        -153.74        3438.22         300.15
         282.31          53.75        1039.98        -841.20        3456.23         331.90
         550.88          46.60        2100.36       -2451.09        3744.31         633.63
         326.95          54.30        2578.76       -2923.58        3954.66         795.93
         333.32         124.76         269.02       -1219.03        4483.01        1099.03
         428.84          43.98        5194.24       -5070.19        3394.19          86.10
         356.41         270.81        1232.32       -1847.88        3979.42         803.90
         359.44         599.31          83.82        -598.35        3546.84         466.49
         323.72          92.63        1596.97       -1669.26        3647.01         531.84
         185.24         194.63        3388.55       -3428.71        3651.38         556.02
         102.51         348.19         132.73         -98.73        3506.37         395.23
         280.96         521.16         240.57        -571.17        3519.57         386.95
         204.85         115.23         269.17        -225.27        3627.09         527.19
         623.52          74.29         341.38        -811.88        3763.74         623.63
         560.13         117.09         364.78        -444.86        3393.92         227.67
         663.13          85.00        2592.66       -3005.17        3655.46         546.94
         748.10           5.31        3776.97       -4035.09        3495.79         391.54
         337.78          71.62        1606.10       -1427.81        3403.41         302.22
         206.14         409.04        1415.22       -1624.38        3585.07         495.93
         812.27          47.04         430.25       -1022.67        3724.19         614.10
          63.63          43.10         406.89         -12.75        3490.20         374.48
         129.69         418.18        4077.08       -4258.80        3624.91         526.61
         769.44          25.47        1067.76       -1519.51        3647.91         629.21
         559.76          40.11        1268.25       -1687.67        3810.61         682.58
         246.24         311.50        1328.50       -1315.76        3420.58         242.27
         886.75           3.19        1360.44       -1714.24        3454.94         307.53
          91.97          57.58        1059.12        -679.65        3462.06         259.01
         530.42          47.61        2346.60       -2406.70        3473.13         320.32
         763.75         339.19        2009.08       -2594.00        3473.04         306.41
         344.78          33.83         820.99        -595.12        3386.60         128.85
         124.17         138.72        1709.96       -1731.97        3750.19         629.09
         131.74         223.23        1184.79       -1199.34        3650.64         555.08
         169.94         160.18         323.05        -110.60        3448.52         320.11
          75.26         154.55         473.18        -147.48        3435.56         273.30
         401.21          97.35         163.91        -142.64        3471.24         362.49
         538.76          29.93        2184.09       -2140.73        3379.03         173.06
         258.34          53.08        2341.95       -2243.33        3581.05         452.24
         844.65         111.12        1087.45       -1653.24        3601.08         491.39
         173.56          21.79          34.16         204.50        3557.07         447.00
         263.84         261.95        1665.53       -1710.59        3510.36         396.42
         304.24          96.12         483.05        -676.20        3783.86         668.54
         240.39          28.89         150.28        -123.53        3695.05         582.27
         172.64         154.25         863.00        -776.48        3577.66         418.92
         238.36         104.83        4022.03       -4223.05        3848.90         717.03
         131.30           3.90         668.22        -381.31        3568.95         456.38
        1047.85         205.29        1265.88       -2146.15        3618.19         523.49
         530.59          10.67        2120.65       -2180.17        3509.32         373.02
         206.10         123.58         384.61        -340.74        3617.52         544.63
         160.66          83.70        1770.28       -1409.28        3385.72         192.58
          60.74          73.40        1142.56        -778.62        3493.00         310.31
         307.88         220.38        1215.29       -1451.35        3698.86         606.21
          78.39         108.40         711.96        -735.93        3828.26         705.98
         862.97         140.75        1657.83       -2209.70        3539.21         456.35
         150.18         390.70        2691.41       -2787.50        3546.29         440.94
         836.79          28.76        1355.71       -2139.04        3908.87         756.56
         466.74         203.82        1861.07       -2180.49        3639.94         538.95
         197.68         403.89        1233.97       -1675.16        3830.69         678.23
         750.34         118.94        2394.85       -2813.98        3540.92         388.45
         243.03         141.87        4282.66       -4499.16        3822.69         697.53
         265.93           2.38         233.87        -218.97        3707.87         613.78
         837.38         112.11         124.12        -820.29        3737.77         630.54
         294.77          38.64         481.28        -806.43        3982.80         816.91
         330.10         149.45        4686.72       -4556.86        3381.67         184.19
         658.69          55.73        1011.83       -1478.94        3743.77         640.59
         317.86          72.31          26.42         -57.55        3632.04         532.92
         225.02          58.03         467.86        -475.57        3715.73         622.89
          75.55          70.73        3383.62       -2943.18        3404.35         218.01
         275.78          51.89        2033.79       -1835.76        3465.36         382.17
         660.59         135.58        1640.61       -2069.39        3623.68         499.52
          14.15          25.61         359.24         150.99        3441.09         291.31
          27.05         595.24        1769.44       -2061.54        3660.87         558.11
         417.88           4.07        1650.50       -1763.01        3681.63         585.77
         341.99          64.07         949.87       -1157.93        3793.07         670.04
         269.50         187.83        1187.54       -1317.52        3663.73         554.46
         145.56           8.71        2516.33       -2167.72        3488.19         416.87
         144.54          78.69        1751.29       -1844.24        3860.80         721.12
         366.35         231.90        2001.91       -2317.84        3708.74         621.35
         525.00         403.64        1581.28       -2247.93        3729.09         626.60
         371.63          88.90        1529.32       -1801.17        3802.40         675.93
          91.29         189.16        2390.14       -2476.23        3796.71         684.43
          75.52         102.65         386.88         -43.76        3469.78         289.44
          74.25          20.89         523.51        -205.73        3578.14         501.71
        1239.63         115.46        3024.37       -4415.83        4027.45         848.19
         496.47         494.53        1414.56       -2144.25        3729.77         625.74
          50.39          75.71         244.50         245.02        3375.45         189.74
          99.85          24.46        3337.85       -3070.65        3599.55         506.90
         149.70          73.20         206.43         -61.42        3623.16         524.95
         668.31         197.74        1158.75       -1911.93        3878.20         760.69
         138.81         224.69         897.15        -947.99        3678.43         589.45
         148.66         361.74         146.93         -96.95        3430.69         266.88
         333.85         355.73          30.36        -392.99        3664.13         555.77
         412.59        1087.16        1115.01       -2047.61        3423.92         262.05
         334.77          77.69        3795.45       -3807.96        3591.10         503.66
         309.45         172.33        2271.37       -2444.83        3682.75         593.50
         149.77          15.49        1112.26        -759.70        3473.28         340.19
          55.12          69.39         117.20         172.34        3577.00         448.28
         430.17         183.61         374.62        -399.68        3402.36         221.86
         229.59         252.36         830.48        -737.04        3415.68         189.68
         131.28         162.14        1243.32       -1028.49        3482.81         369.44
         499.46         259.23        1558.53       -1871.12        3545.01         423.50
         251.87          92.43         806.82        -858.72        3698.68         581.05
         329.53           3.18        3889.97       -3957.86        3726.24         596.24
          71.89          65.89        1317.76       -1472.44        4007.98         817.68
          99.02          34.03        1462.10        -979.80        3375.73         233.94
          62.46          11.43         738.98        -213.97        3392.17         166.04
         303.92           2.92        2477.47       -2172.97        3379.74         177.67
          90.40         218.03        2142.40       -2025.96        3566.21         507.79
         690.89          30.89         790.50        -916.87        3395.66         150.67
          67.35         377.68        1144.37       -1521.33        3923.01         790.26
         103.20         287.49         647.35        -866.48        3819.51         698.62
          87.84          41.47         960.92        -710.42        3611.26         526.30
         217.34          10.00        2118.27       -1979.92        3625.41         551.81
         314.28           9.94        3279.60       -3214.03        3601.30         501.83
         512.20         165.77        3903.29       -4164.13        3573.96         452.44
         272.12         341.47        1256.09       -1936.77        4058.17         867.93
         682.61         260.87        1630.62       -2060.20        3477.17         341.18
         652.20          32.96        1253.70       -1368.95        3421.16         339.61
          78.88          46.59        2532.58       -2104.56        3437.57         284.35
         463.23          36.24        1514.74       -1538.83        3515.71         371.16
         730.39          43.77          29.93        -271.21        3458.19         291.44
         560.93         130.02         652.57        -967.07        3614.62         504.66
         400.01          93.63        1268.76       -1397.53        3626.20         513.15
         551.85          77.33        2176.07       -2226.44        3412.27         275.75
         182.45         129.37        1448.39       -1337.08        3567.94         476.26
         151.37         435.26        1021.05       -1238.12        3621.51         541.56
         101.95          26.89         278.95         198.10        3385.19         380.23
         303.53          42.15        1740.63       -1726.34        3631.10         528.47
         237.50           4.89         671.12        -431.90        3509.47         384.91
          48.70         184.56         144.32         135.01        3478.47         341.39
         188.66         527.13         711.96        -986.83        3550.17         371.25
         144.57         180.47        1566.14       -1509.59        3609.50         492.98
         616.66          64.79        2478.82       -2892.67        3723.47         624.36
         288.89         113.42        1527.55       -2175.06        4236.28         960.01
         790.12          63.22        1140.85       -1666.01        3662.89         548.85
         198.33          49.40        2198.28       -1922.11        3467.17         347.68
         166.74          17.91           0.59         315.21        3490.61         358.82
         803.45         451.87        1181.61       -2143.96        3698.12         597.52
         307.42         125.16        1166.94       -1023.63        3415.20         298.82
         279.66         178.37        1736.53       -1733.68        3530.19         424.34
         244.06          45.16         494.83        -205.36        3412.41         161.56
         495.88         377.18        1073.37       -1424.11        3468.76         335.97
         156.62          18.10        1589.52       -1287.95        3514.77         414.71
         464.26         202.43         486.42        -639.71        3477.69         324.17
         466.26          21.55        3041.26       -2931.93        3393.93         166.66
         442.07         232.08        2439.34       -2798.41        3675.97         555.54
         668.92         114.67        2736.82       -3118.94        3589.63         546.56
         161.49         109.70        1361.29       -1680.32        4038.92         854.96
         273.53          87.22        1046.84        -899.65        3483.13         376.44
         486.68         450.17         183.31       -1087.74        3958.66         784.87
          58.77         207.47         744.12        -398.68        3379.39         148.82
         198.11          11.64         120.66         253.35        3407.33         251.98
         584.80         109.08        2067.16       -2293.36        3523.39         398.37
         549.40         182.52         442.51        -598.63        3415.27         225.53
         396.51          72.53        2863.29       -2903.01        3561.75         446.00
         349.76          65.41         904.41        -954.47        3625.97         521.91
         113.30         119.29         903.43        -754.44        3609.50         502.67
         379.45         142.92        2156.19       -2191.09        3503.61         345.49
          43.06          48.96        2213.39       -1705.60        3391.29         126.28
        1133.23          97.79         767.79       -1426.73        3419.00         125.49
         242.23          82.31        1204.36       -1139.31        3601.48         534.34
         521.14         172.41        1633.16       -1893.68        3558.05         473.55
         385.50          22.44        1385.30       -1425.70        3623.52         507.69
         150.16          20.91         514.98        -295.87        3600.90         494.30
         289.14          68.57         915.88       -1241.38        3958.88         788.80
         352.67          89.59        1146.45        -972.92        3375.28         183.68
         295.94         108.24         245.88        -192.85        3533.88         413.11
         289.66         399.41         572.32        -965.11        3694.79         582.19
         326.42         160.90         126.33        -292.46        3669.88         569.12
         157.78          23.26        3720.74       -3835.33        3924.63         768.57
          50.87         281.06         482.17        -328.90        3505.89         378.26
         135.75          83.81         170.41         182.69        3418.41         234.97
         371.89          41.86        1420.57       -1258.56        3415.32         256.18
         601.69          61.53         126.68        -534.80        3735.98         630.98
         151.14         416.71        1931.25       -1965.27        3457.25         315.02
         262.25          82.07        3001.35       -2876.25        3521.64         432.39
         271.26         313.58        2740.72       -3240.40        3905.91         759.32
         113.54         471.19        1395.81       -1521.88        3532.39         418.24
         362.11         188.46        3221.82       -3540.51        3759.21         651.74
          62.18          37.89          31.03         147.79        3712.18         604.44
         353.69         294.68        1043.55       -1198.00        3497.15         372.31
         304.99         167.29         120.52         -65.25        3463.51         330.49
         884.60          62.12        1579.10       -2297.16        3762.39         648.94
         810.78         369.02        1796.81       -2693.99        3708.47         571.86
          99.33          13.56         796.53        -465.41        3547.07         457.25
         277.39         212.40         347.99        -553.47        3706.79         588.00
         179.26         177.31          14.57          81.87        3538.05         429.40
         125.47         329.52        1859.69       -1868.14        3544.53         450.59
         149.35         645.00        3166.53       -3471.86        3502.03         340.88
         460.14         493.30         958.03       -1376.46        3456.07         319.40
         320.59          97.84         585.68        -701.83        3688.77         600.67
         615.29         267.74        1475.99       -1959.16        3591.20         493.54
         550.31          19.00        3083.51       -3036.93        3375.19         158.37
         625.70          60.45        3656.03       -4065.36        3714.25         605.60
         170.31           4.62         766.31        -681.58        3731.41         629.53
         244.16          52.03        1164.79        -933.53        3463.66         278.21
         539.91         235.39         894.48       -1102.05        3423.34         217.54
          50.02          42.85        1964.31       -1428.22        3362.12         164.17
         360.37          32.22         833.71        -735.54        3500.32         356.08
         537.93         377.07        1050.17       -1516.78        3542.69         399.15
         359.25          31.47         727.44        -738.74        3611.65         488.23
         223.64          73.60        1515.25       -1440.30        3618.88         525.13
         552.38         609.83        2413.67       -3293.62        3708.80         605.57
         398.05          28.52        3001.64       -3204.55        3767.42         638.15
         124.72          15.66        3381.45       -2994.47        3463.72         328.21
         297.60          74.23        1819.55       -1649.20        3448.89         356.14
         316.91         157.24        1317.69       -1457.15        3656.40         537.78
         193.08         402.32         160.09        -852.45        4088.04         890.76
          45.42         228.98         695.38        -456.52        3477.82         245.19
         491.03          10.14        1797.19       -1729.75        3422.47         267.42
         124.33         394.95         942.72       -1082.40        3611.47         534.88
         203.92         254.22        2435.11       -2268.87        3366.69         149.06
         142.67          18.80         115.01         189.27        3525.30         415.31
         466.28         143.63         862.95       -1504.43        4022.64         824.01
          40.76          39.85         203.43          94.23        3612.80         486.55
         374.86         504.53        1837.53       -2360.22        3634.38         553.10
         732.70         345.21        2771.88       -3295.10        3436.35         262.86
         777.18          14.46         987.01       -1177.70        3390.12         186.44
         234.67          10.47        2320.26       -1939.73        3365.42         121.75
         597.21          79.38        1801.38       -1926.56        3439.67         214.98
          93.23          45.20        1094.64        -960.62        3718.62         626.12
         255.21          41.51         591.48        -441.04        3543.92         459.00
         194.21          54.66        1563.85       -1221.58        3399.94         180.93
          90.93          34.01          80.03         325.70        3460.40         425.34
         997.16          15.40         437.58        -909.06        3449.99         320.23
         230.93          44.30        4456.92       -4211.23        3470.13         364.39
         110.81         167.00        1430.02       -1234.07        3517.33         395.51
         306.95         248.72        1048.01       -1209.30        3596.70         487.44
         393.80         155.05         591.34        -651.79        3502.68         374.19
         426.93         121.02        3073.39       -3404.29        3774.02         665.78
          57.96         182.60        1619.59       -1466.11        3597.06         492.11
         424.33          15.42        1935.16       -1805.08        3421.27         286.53
         314.20           6.13         592.59        -641.99        3720.13         636.86
          96.31         280.02        1230.52       -1495.10        3879.32         748.77
         343.09          74.99           6.26        -270.03        3836.74         702.29
         143.11         214.59        2645.26       -3592.94        4581.06        1129.30
         288.00         174.02        1893.49       -2206.00        3841.56         703.75
         177.98         404.55        1870.31       -1858.42        3396.65         287.50
         287.88          49.75         725.48        -702.59        3630.56         545.07
         207.08          13.76        3049.08       -2704.74        3425.88         229.81
         306.04         169.15        1822.39       -1831.95        3525.45         413.65
         242.63           3.21        2483.33       -2269.49        3531.41         399.00
         133.81          72.58         264.45         -82.48        3602.71         510.83
         377.87         283.99        2928.42       -3504.03        3904.81         761.80
         241.82          21.29        1336.64        -976.58        3367.90          45.74
         149.37          98.15         104.53         269.38        3369.64         173.02
         605.31         236.96        1552.41       -2456.91        4053.30         865.13
          81.97          33.10         349.42        -204.88        3731.47         630.78
         270.85          31.90        1608.90       -1335.78        3415.21         239.87
          99.11         512.85        1225.90       -1291.23        3444.45         339.98
         568.54          87.70        1197.64       -1250.35        3387.54         225.32
         241.75         344.85         443.42        -477.05        3438.10         219.99
         304.36         116.00        2460.55       -3025.67        4135.85         898.99
         542.34          33.11         245.13        -636.77        3807.27         696.29
         459.53         290.83        1363.44       -2016.81        3894.07         749.54
           4.79         117.78        1360.91        -887.70        3395.27         208.13
         444.63          33.86        1650.06       -1627.65        3490.18         376.26
        1854.19          98.62          64.60       -1903.83        3877.51         732.05
         567.18         162.59        1297.68       -1923.41        3887.04         738.55
         800.34         168.59        1541.72       -2070.51        3550.93         416.80
         466.14         280.88        2513.46       -2643.47        3374.06         205.18
        1166.46          53.89         117.88        -845.89        3498.75         388.53
         430.23         175.10        1926.18       -1958.65        3418.21         260.21
         238.10          53.08         118.16          58.93        3522.80         415.22
         839.36         204.00         993.70       -1454.55        3408.55         260.65
          29.53         154.66         644.38        -359.21        3521.72         430.53
         196.54           2.56         435.56        -937.35        4293.76        1001.79
          61.11          97.91        2759.60       -2687.70        3760.17         648.18
          41.25         116.88        3803.50       -3398.19        3427.63         242.68
         309.93         171.57         460.78        -784.58        3833.39         671.11
          23.38         108.74        3012.87       -2556.77        3402.86         235.20
         351.69          16.38         863.24        -779.66        3539.44         441.34
          80.72           9.80        3420.74       -3460.25        3940.05         774.77
         597.18          70.67         121.87        -270.36        3471.73         326.96
         724.66         302.62        1355.50       -1933.79        3542.10         465.16
         783.07          72.29          77.12        -593.67        3652.27         555.55
         199.02         164.78         640.79       -1630.09        4616.57        1162.46
         262.47         244.67        2824.04       -2832.97        3492.88         422.95
         113.92         185.19         926.12        -883.97        3649.82         552.79
         327.48         236.41        3263.50       -3525.92        3689.61         604.77
         693.34          19.47        2650.52       -2817.44        3445.17         337.56
         157.44         358.57        1731.28       -1902.62        3646.40         556.87
         274.05          53.38        2551.64       -2883.63        3995.64         816.52
         119.49          64.14         884.26        -643.44        3566.60         463.54
         655.36          22.23         404.74       -1219.26        4127.99         901.84
         532.99         458.59        1816.05       -2268.59        3452.03         367.07
         409.15         471.67         325.03        -756.01        3541.23         453.37
         298.72          19.16        1892.09       -1860.09        3641.23         434.20
         572.22         203.47         348.32        -721.91        3588.97         466.03
         143.08         297.66         448.80       -1265.32        4366.84        1048.29
         450.07         345.88        1468.33       -1933.61        3660.42         538.52
        1105.72          45.56        1287.57       -2339.19        3891.38         745.83
         214.58         521.33        3725.30       -4359.65        3889.51         750.54
         202.53          72.15        2022.64       -2443.41        4137.18         903.66
         288.86         137.32         112.76          40.42        3411.70         282.29
         283.37          83.53        1707.81       -1690.07        3606.43         477.84
         222.26         190.71        2065.36       -1999.94        3512.68         414.25
         929.81          90.16        3069.07       -3747.17        3649.21         572.22
         323.10          97.05         281.27        -207.57        3497.23         392.15
          28.67          61.85        2074.74       -1780.23        3606.04         523.69
         296.65         108.71          48.10        -421.47        3959.08         790.57
         407.62         439.89         668.88       -1327.81        3802.48         665.80
         555.98         364.65        1873.04       -2390.11        3587.51         489.59
         705.11          56.90         204.61        -773.85        3798.31         676.19
         617.61          39.70        2578.00       -2815.38        3571.16         463.19
         825.36         226.82         682.07       -1699.99        3956.79         798.43
          46.37          13.80        1070.05        -686.92        3547.77         463.56
         586.47         134.37        1126.52       -1255.85        3399.56         172.72
         159.18         226.79        1298.90       -1261.90        3568.10         425.45
          95.27          14.89         939.16        -818.38        3760.11         653.25
         702.58         161.77         156.50       -1157.78        4128.00         899.66
         378.11          16.08        4584.49       -4479.90        3492.30         374.72
         279.54         115.51        3071.95       -3128.93        3653.00         584.00
         444.71         400.62        1168.66       -2261.72        4238.79         966.29
         128.30           8.78        1045.06        -728.37        3537.31         375.17
         449.89         349.93        2283.60       -2632.22        3539.88         435.65
        1007.70         221.13        1530.62       -2263.25        3494.87         404.52
         525.75           5.80         765.47        -678.91        3372.96         150.77
         271.40          23.18         136.09         -21.47        3581.87         508.51
         123.43          76.52         515.01        -356.20        3632.32         520.20
         487.54          83.64         329.42        -744.63        3835.11         727.74
         511.72         448.61         929.01       -1355.47        3457.20         338.13
         645.94           5.00         243.01        -580.77        3677.89         591.21
         711.53         418.73         287.31       -1033.40        3606.91         545.44
         170.72         125.44        1252.55       -1618.29        4060.64         854.67
         144.70          13.70         604.67        -169.56        3397.57         190.82
          15.81          84.17        1632.36       -1276.53        3535.25         445.37
        1400.44          95.05        1331.80       -2325.83        3489.61         333.22
         316.54         219.21         932.80       -1248.01        3770.51         627.23
         739.65           9.64        1329.86       -2044.02        3955.93         793.70
         588.55          53.01        1900.98       -2293.21        3741.74         635.67
          76.50          47.56        1135.85        -748.67        3479.82         360.49
         414.11          30.37        1515.30       -1336.92        3368.19          90.41
         306.34           6.89         158.39        -175.93        3695.38         590.69
         309.78          14.58          27.02         152.22        3487.50         407.80
           3.09           5.38        4268.12       -3640.76        3355.27          82.40
        1185.10         505.46        1465.18       -2806.65        3641.95         561.12
         729.05          39.17        1190.30       -1417.87        3450.44         352.79
          56.16         416.55         611.39        -600.70        3507.67         352.53
         602.05          11.24        1702.21       -1819.91        3495.48         371.32
         118.92         263.27         737.80       -1434.24        4305.32         986.85
         164.17         150.92         347.57        -733.36        4061.77         868.77
          85.58          60.69         379.11          31.48        3434.23         324.87
          86.74          39.51         142.90         201.55        3520.39         448.56
         353.71         171.54        1976.21       -1965.39        3454.99         307.20
          77.11         351.30         555.34        -630.76        3638.09         516.62
         543.36         177.07        4361.83       -4779.09        3687.91         605.65
         434.84         109.66         151.03         -95.85        3391.41         190.03
         152.08          67.61        2416.89       -2239.32        3593.80         481.34
         821.06           1.86        1262.33       -1638.03        3543.86         443.84
         141.24          88.73          28.01         -26.80        3759.88         648.79
          31.56          36.02        1269.19        -956.28        3610.58         522.46
         641.90          71.26        1661.18       -2422.12        4038.85         853.19
         356.28         114.36        2670.50       -2608.65        3458.58         302.87
         410.15         102.11        1694.27       -2248.51        4033.07         858.87
         968.55          11.67         770.13       -1203.07        3443.79         262.87
         773.33         124.67        1431.56       -1977.93        3639.45         553.42
         242.09         212.55        1113.63       -1078.54        3501.34         376.22
         806.21         197.89        2032.66       -2620.83        3575.13         480.79
         535.64           8.86          57.08         -28.45        3417.93         312.18
         119.69         130.74        1483.10       -1412.68        3670.22         589.56
          28.51         453.36        2088.89       -2274.34        3694.64         611.07
          61.07          53.50        1954.45       -1497.86        3419.94         237.12
          97.98         446.87          64.57        -557.90        3939.54         784.45
          73.63          46.96         817.44        -456.49        3509.54         387.06
         216.69           7.81        2120.27       -1966.34        3612.66         503.49
         365.12          65.25        2260.81       -2204.40        3504.28         336.89
         445.53          86.72        1329.04       -1290.82        3420.63         122.96
        2112.98         125.78        1828.99       -3552.58        3475.92         356.42
         416.32          87.03        3527.28       -3475.70        3436.16         298.59
         128.45          90.82        1999.01       -2005.79        3778.57         668.90
         399.84          81.52         484.98       -1057.10        4081.84         898.54
        1404.30         456.86        2519.90       -3902.96        3512.98         386.84
        1335.53          25.83         560.34       -1660.55        3729.94         616.85
         172.30          58.40         858.56        -559.87        3461.68         341.74
          33.11           9.03         682.34        -495.34        3761.93         653.53
         531.69         144.09         384.58        -676.99        3607.71         474.89
         117.37         618.69          73.52        -290.66        3472.16         371.18
          84.67           0.41         317.75         166.90        3421.34         264.95
         524.00          89.92        1854.75       -2219.43        3741.83         636.78
         174.65          32.33         932.13       -1299.09        4151.07         925.68
         607.20          11.00         259.75        -495.21        3608.32         515.63
         255.06          91.58         573.71        -683.54        3754.26         661.66
         182.41          44.27        2385.00       -2146.92        3526.33         417.42
         253.63         100.92        1563.04       -1478.48        3551.95         428.80
         580.96         155.55        2393.29       -3032.02        3893.28         742.60
         931.05          68.58        5042.73       -6218.89        4167.59         911.75
        1668.87           9.74         652.68       -1802.88        3462.64         330.49
         806.61          35.21         916.15       -1506.03        3739.13         639.05
         560.28         210.05        2525.74       -3032.66        3727.65         619.08
           3.60         291.90         730.01       -1076.85        4042.41         834.31
         327.96          60.51        2710.28       -3352.41        4244.72         971.99
         218.57           7.00         847.94        -836.68        3754.25         642.66
         171.07           5.48          94.97        -173.59        3893.17         760.37
         756.80           1.93        1662.78       -2027.44        3596.98         488.97
        1908.61         147.79        1259.60       -3078.95        3754.02         652.15
         594.38          72.76        1246.06       -1317.90        3395.78         213.29
          52.73          30.60        1367.68        -996.08        3536.15         465.68
         276.74          57.27        2911.13       -2866.74        3612.68         494.92
         106.06           5.66        3137.81       -2664.66        3406.20         168.73
         326.23         140.92         303.99        -503.37        3723.31         642.72
         307.55         216.23         816.69       -1509.52        4160.11         923.43
         236.72         169.92        1352.07       -1448.11        3680.46         563.54
         164.82          98.25        2913.22       -2760.62        3575.40         479.94
         253.07          73.92        1610.55       -1401.13        3454.66         340.84
         140.97         222.93         562.59        -552.17        3616.77         505.78
         267.03         128.02         733.85        -729.64        3591.84         527.79
          90.27         111.38        1928.70       -1770.74        3631.47         516.20
         751.85         146.94         169.65        -835.83        3758.46         657.38
         506.16          35.52          12.84         -34.17        3470.71         359.97
         149.03          24.04         954.49        -652.23        3515.73         431.10
        1355.78         302.18         989.60       -2125.81        3469.32         346.46
         321.31          44.59        1947.25       -1955.31        3633.25         508.53
         305.81          14.44        1424.32       -1393.12        3639.65         553.40
         211.31          12.61        2907.89       -2543.69        3402.96         162.76
         255.27         267.51        1131.73       -1301.80        3638.36         568.24
         181.32          29.80         276.65        -402.51        3905.81         755.13
         183.10         130.89         102.33          74.53        3500.22         381.42
         135.87         543.34         244.27        -984.89        4052.47         865.46
         521.44          88.23        3938.61       -4426.61        3869.41         742.75
         134.63          19.18        1751.07       -1689.62        3775.82         691.41
         955.63         211.75        1246.09       -2141.51        3719.11         601.04
         208.79          41.07          88.83         125.25        3527.14         405.95
         480.67         500.30        2198.13       -2876.40        3688.38         591.44
          49.91          63.41        1964.78       -1526.42        3439.40         266.56
         580.62         670.23        1754.44       -2994.00        3979.79         828.66
         569.84          30.05         584.24        -834.73        3641.68         513.22
         543.17         349.30        5116.23       -5609.53        3591.93         501.73
         170.31          54.46         772.28        -473.03        3467.05         377.10
         684.99           5.32        1987.59       -2324.10        3637.29         537.48
         208.87          68.81         329.54        -335.48        3719.33         626.52
         145.66         134.67        1478.17       -1261.52        3494.11         392.78
         321.25         225.51        1803.85       -1831.81        3472.28         361.25
          31.16         231.82        2678.83       -2392.71        3441.97         280.84
         392.80         113.91        1094.65       -1340.28        3729.99         659.83
         467.83         382.12         410.91        -763.48        3493.71         333.55
         466.43         274.11        2161.54       -3172.21        4261.20         978.84
         348.93          88.07        2534.89       -2356.19        3375.38         208.55
         341.81         196.88         699.25        -710.91        3464.03         282.60
         125.26         165.21         371.57        -179.15        3508.19         402.92
         552.55          45.72         716.63        -978.30        3654.48         572.13
         279.39          41.30         720.35        -494.08        3444.08         329.63
          48.72         373.06         801.25        -718.91        3486.93         398.28
         462.02         182.78         289.24        -494.59        3551.62         478.23
         112.65           2.11         703.66        -825.81        3998.45         835.99
         192.10        1197.84        1559.83       -2824.77        3866.06         741.83
         776.39         101.33        1800.47       -2084.17        3397.06         202.48
         127.00         394.69        2334.07       -2703.17        3838.50         692.41
          96.93         262.41         222.26        -230.49        3639.98         561.37
         491.57          44.31         270.13        -489.69        3674.74         612.20
         614.84         131.10        2158.01       -2603.03        3690.15         572.16
         178.67         232.04         146.49         -43.38        3477.28         336.53
         323.45          36.73        1250.40       -1013.78        3394.29         181.97
          81.19         310.17        2487.88       -2705.52        3817.35         690.46
          55.45          25.60         468.59        -581.32        4022.77         859.71
        1195.45          20.25        4316.22       -5082.44        3541.58         405.59
         230.63         234.11        2721.45       -2713.52        3518.41         413.27
         737.53          30.67         459.21        -725.90        3489.55         337.31
         457.40          56.27        1149.50       -1175.32        3503.21         389.77
         432.73         446.94        1476.94       -1978.78        3613.26         533.58
          94.90          10.10        1232.44       -1070.14        3723.78         596.95
         206.48         277.56         828.98       -1371.72        4049.78         871.82
         107.05         684.15          51.18        -697.35        3846.05         745.00
         106.63          20.64         793.55        -583.01        3653.28         545.72
        1439.23         585.84        2549.92       -4297.70        3713.77         610.50
         129.69          57.49        1545.46       -1782.41        4040.84         866.67
         127.45         187.12        3782.26       -3506.52        3400.76         242.11
        1042.02          14.19        2796.34       -3598.30        3736.81         630.09
          75.95          49.32         434.46          39.18        3392.16         192.53
         372.69           9.56        2439.10       -2424.51        3594.24         464.76
        1644.10          96.71        1462.63       -2571.02        3358.65         111.01
         325.48          84.31         369.11        -349.96        3562.14         473.61
         381.82         190.93        3627.50       -3943.25        3734.08         629.42
         682.85          40.98        1181.43       -1384.36        3470.19         386.94
         306.98         218.37         901.64       -1564.53        4128.61         918.47
          34.91         243.78        1468.49       -1669.52        3913.39         758.17
          61.95          80.93        1977.21       -1775.80        3646.78         528.72
         720.94         325.46        2269.24       -2793.61        3469.05         330.80
         319.80         500.19         490.83       -1023.17        3703.42         592.61
          58.92           7.08        2715.19       -2447.13        3657.01         593.20
         910.62         157.78        1792.65       -2267.18        3397.19         222.26
          78.55         131.87        4372.99       -5115.95        4523.60        1115.06
         102.29           0.16         136.30         200.54        3551.79         427.99
         365.21          68.76        1617.45       -1678.40        3618.05         527.44
         230.86          34.14         951.00        -652.98        3428.06         283.40
        1117.93         252.88        3010.29       -4226.98        3836.95         704.11
         142.52         139.38        1090.86       -1008.25        3626.56         553.81
         295.93         732.65        1113.16       -1741.44        3590.77         507.06
         310.39          44.25         332.11        -486.98        3791.30         630.63
          84.67         255.33        2458.36       -2265.70        3458.40         347.43
         257.80          53.44         987.28        -738.97        3431.53         292.07
         777.67         210.72        1860.93       -2825.05        3966.81         815.34
         588.92          68.62         825.72        -985.14        3492.97         339.74
         168.73         172.33         789.49        -932.07        3792.58         684.34
          85.90         160.74         613.18        -409.67        3540.93         465.61
         252.92         254.49        2986.54       -3016.03        3513.15         418.72
         522.49         475.12        3946.57       -4401.31        3448.20         344.30
         298.51         212.09         722.50        -866.96        3624.95         553.30
         260.54         245.80        3590.88       -3680.30        3574.17         486.91
         923.76          73.95        1135.56       -1522.84        3380.62         189.35
         499.14          27.20         529.02        -596.38        3532.10         435.68
         194.10          98.69        1488.46       -1323.66        3533.48         430.61
         329.42          56.67         416.35        -549.40        3738.03         651.23
         792.39         280.32         286.51       -1478.64        4110.48         882.54
         409.94         271.98        1538.58       -1725.04        3495.59         358.96
         332.02         119.22         194.60         -62.77        3407.99         259.43
         235.79         163.49         997.71        -903.57        3497.67         316.20
         161.54          26.80        1194.30        -769.95        3378.40         212.13
         559.98         115.23        1432.25       -1675.90        3559.50         452.64
         348.07          55.29        2723.87       -2589.34        3453.18         337.06
         241.92           6.73        1498.40       -1636.78        3880.81         734.60
         434.70          40.41         358.96        -501.46        3658.46         563.47
         113.23         105.17         866.23        -519.62        3426.06         292.29
         357.16         303.07        2714.02       -3405.41        4022.25         825.98
          63.41         168.01        1448.15       -1150.18        3461.66         333.90
         103.31         273.12         789.89        -594.96        3419.71         157.49
         399.06         305.03        1364.73       -1690.51        3612.78         496.56
         806.64         138.19        1337.33       -1668.69        3377.60         183.45
         232.40         138.31         344.77        -153.51        3429.08         227.01
         187.38         159.45         213.10          64.77        3366.37         141.47
         560.79          24.01        2463.41       -2682.08        3624.93         547.85
         160.52         326.30         796.12        -848.49        3556.61         469.68
         389.35          49.52        1687.03       -1495.75        3360.93         174.34
         666.45          27.44        2452.91       -2796.05        3640.31         534.74
         734.27          40.00         346.31        -787.25        3657.75         566.87
         191.80           7.43         303.89         -29.79        3517.76         349.98
         271.38         217.68        3038.28       -3308.44        3772.18         656.88
        1025.32         311.32         680.37       -2005.38        3979.43         801.31
          78.78         341.58         105.65        -399.82        3864.87         736.93
         179.27          10.38         197.43         100.82        3503.17         364.43
          41.07          18.64         975.56        -560.31        3516.12         389.19
         268.58          22.07         552.93        -635.68        3783.16         664.00
          82.28          49.14         935.16        -897.94        3822.44         692.83
         503.43          64.64        2467.87       -2700.76        3655.89         538.24
          15.03         124.21        2246.19       -1987.88        3593.54         478.69
         333.02         158.25        1799.89       -2023.72        3723.63         612.72
         655.77         249.52          71.39        -366.96        3381.34         159.80
         191.80         184.83        1274.27       -1493.36        3833.54         704.92
         387.73         264.65          72.26        -178.55        3444.99         284.71
         711.81         232.62         931.15       -1351.00        3466.49         318.74
         425.00          33.04         972.06        -863.83        3424.81         208.12
         407.74          66.99        1039.71       -1041.35        3517.98         372.73
         184.87           8.10         855.34        -488.50        3431.25         329.95
          86.46         136.30         315.46        -572.35        4025.19         834.82
         884.97         425.83        1896.67       -2776.74        3560.35         437.31
         177.78          26.62         126.15         158.98        3501.54         385.80
         221.57          17.98         148.69         152.18        3450.67         344.67
         908.48          55.58        1842.83       -2240.62        3424.81         230.06
         445.53          17.20        1771.76       -1791.80        3548.38         430.41
         278.73          43.51         243.36        -123.72        3549.21         403.92
         395.05         219.20          26.83        -926.63        4276.64        1009.91
         240.02           9.76         777.41        -496.32        3460.19         338.19
         390.72          28.51         228.84        -254.26        3597.27         509.62
         191.36          88.61        2580.44       -2442.34        3573.00         476.78
         143.63          34.46        2591.86       -2243.67        3464.78         362.70
         323.76         586.95        1695.48       -2188.30        3573.18         479.94
          83.11         121.56         892.04        -751.79        3646.15         556.94
         396.01           8.55         398.51        -264.37        3452.39         280.50
          78.15          57.00         192.19          88.03        3575.71         477.76
         168.73          41.77        3753.43       -3533.78        3560.90         469.49
         459.66         114.47         620.75        -640.34        3436.54         288.07
         131.83         224.69         182.58        -131.84        3583.81         517.24
         274.90         128.19         785.84       -1296.20        4098.32         898.34
         247.63         143.62         313.25        -137.72        3424.29         265.19
         320.39          84.92        1597.29       -1497.26        3485.74         391.90
         346.00          26.52        1758.06       -2139.31        3999.80         836.92
         298.92         233.62        2278.35       -2360.58        3540.76         439.13
         104.11         202.26         764.70        -922.83        3842.84         700.46
         703.74         568.98        1970.87       -2809.69        3557.17         446.30
         254.29         136.88        4186.04       -4105.90        3519.77         354.23
         510.11          27.19         334.65        -242.04        3361.15         105.61
         128.46         133.71          18.99         311.91        3398.00         224.16
         166.70          46.37          41.26         256.94        3479.78         377.45
         234.56          20.87         321.33       -1096.96        4511.27        1112.07
         183.90          44.46          80.75         223.93        3458.05         314.84
         184.35         162.11         576.61        -893.00        3960.98         790.12
         116.74          37.21        1063.92        -730.10        3503.30         405.93
          29.81           3.72        1407.24       -1164.52        3714.84         605.91
         237.55         183.39        1848.60       -1810.40        3531.95         390.39
         107.26         184.03        3552.65       -3353.56        3500.68         387.88
         370.17         165.68         751.27        -790.57        3494.53         316.50
         595.42          99.56         336.65        -543.97        3503.42         375.58
         303.17         158.99         404.16        -579.79        3704.55         579.65
         158.10         342.31         346.71        -479.99        3623.93         517.75
         811.85          18.17        2505.82       -2847.21        3502.45         353.65
         354.05          28.58        3612.24       -3713.91        3710.09         591.99
         587.36           5.30        1007.06       -1165.80        3557.16         489.20
         104.13         338.84        1123.78       -1164.07        3588.38         484.25
        1121.97         246.65        1713.76       -2599.34        3508.01         343.43
         639.85          38.67         957.60       -1493.72        3848.68         725.85
         425.44         110.13         106.44        -219.40        3568.45         492.26
         509.62          85.25          10.11        -577.00        3963.09         794.62
         233.57         686.32        2008.81       -2358.69        3421.07         331.40
         163.91         385.07        2341.01       -2639.96        3741.05         631.07
          97.44         238.25          13.46        -322.00        3963.92         778.14
         628.10         201.49         273.60        -700.15        3588.05         467.02
         268.06         160.15         162.59        -521.24        3921.51         735.04
         911.57         303.93        1269.20       -2135.68        3642.06         539.25
         189.38          14.12         783.88        -851.49        3855.17         748.98
         260.62         150.19         355.27        -627.12        3852.09         724.66
         740.30         160.14        1832.23       -2372.90        3631.28         565.64
        1567.16         302.67        1157.19       -2634.39        3598.43         505.47
          67.53         345.50          55.57         106.80        3415.66         251.81
         323.33         211.43        1124.23       -1325.17        3657.26         567.89
         494.11         402.05         861.93       -2041.00        4273.96         978.46
          41.33         542.39        1346.16       -2133.70        4194.90         932.94
         525.71          53.90         435.50        -612.51        3588.48         446.32
         327.49         105.96        3881.54       -3777.28        3453.38         292.48
         369.46           8.57         686.85        -426.03        3352.24         160.82
         819.60          95.60         667.15       -1270.20        3678.93         567.75
          22.43          98.03         997.97        -553.96        3426.60         296.95
          24.62         172.95        1720.90       -1392.29        3464.91         327.15
         916.64         152.42         473.54       -1085.10        3533.59         401.64
         773.44         452.82         666.17       -1535.46        3634.07         567.66
          47.52          24.08         689.16        -412.40        3642.72         555.66
          36.62         166.23         689.41        -398.46        3497.25         365.04
         148.16          50.40         287.90        -193.63        3698.26         628.30
        1828.87         383.61         631.41       -3465.25        4612.42        1137.14
           8.73         223.59        2180.02       -1828.60        3407.35         204.61
         301.43          96.27        1530.76       -1404.40        3467.01         309.60
         639.86           7.95         623.22       -1086.43        3806.46         684.01
         686.56          59.24          82.76        -396.79        3559.30         452.64
         695.61         197.77        3668.11       -4886.11        4315.68        1015.41
         362.57         136.67         693.18        -957.91        3756.55         626.85
          30.46         136.10        2060.93       -2134.15        3897.75         720.67
          97.08         556.45        3763.16       -3852.95        3427.34         280.73
          57.44         253.50         667.48        -727.51        3740.16         657.39
         252.63         119.96        4326.23       -4188.74        3481.02         376.22
         500.63         387.24         497.98       -1145.13        3750.36         639.85
          84.96          49.45         186.94         275.93        3393.79         295.64
         219.32          90.06        2191.70       -1955.05        3445.06         295.28
          94.89         140.69         929.79        -578.80        3404.50         242.36
         574.34          28.11         811.64       -1167.55        3744.54         626.93
         370.63         136.80        1416.58       -2036.92        4103.98         890.56
          28.53          45.38        1008.82        -533.04        3441.37         257.58
         112.82         271.93        1829.59       -1821.92        3598.65         485.52
         444.81         183.50          94.06        -322.11        3590.82         481.85
         726.57          35.36        1066.06       -1460.72        3623.81         509.34
         453.85          53.15          41.29          44.55        3398.25         215.10
          13.48         300.30        2108.15       -2562.26        4131.39         890.00
          16.72          98.88        1653.60       -1274.20        3496.06         373.44
        1703.28          98.29        2402.76       -3596.32        3383.04         176.41
         307.93          32.92        5091.48       -4823.08        3381.81         146.04
         386.60          49.08        2677.06       -2726.12        3604.44         486.17
          20.89          32.95        2995.46       -3181.96        4123.73         896.96
         364.20         283.77        2204.19       -2462.15        3601.06         528.01
        1467.36          29.45        1948.56       -2858.85        3404.55         187.62
         293.03         346.72        1147.73       -1331.89        3535.49         406.17
         158.36         402.01         328.28        -500.34        3602.76         493.95
         193.79         180.09         293.09        -141.46        3465.57         367.85
         216.50          52.77        2556.33       -2282.94        3448.42         258.76
         702.98          43.74        1349.37       -1481.57        3376.55         161.05
         216.35         481.43        2216.12       -2789.26        3866.42         739.19
         103.76         119.03        2617.60       -2532.94        3683.64         590.08
         244.97         202.80        1686.17       -1552.45        3409.59         350.83
         503.72         204.59        1211.58       -1663.05        3734.22         635.83
         466.12          53.55         599.28        -620.06        3492.17         373.37
         889.52          13.58        1315.96       -1603.16        3375.18         119.13
         757.11         323.96          64.93        -637.61        3482.67         345.78
          94.86         177.02        1674.22       -1352.25        3397.24         208.22
         724.37          19.05        3225.12       -3399.48        3422.00         244.95
          93.60         207.07        1227.84       -1115.98        3578.54         509.68
         653.22          56.49         724.81        -928.42        3484.98         353.95
          34.76         516.65         844.07        -913.09        3508.69         397.32
          75.17         213.08         450.06        -533.80        3786.56         674.94
         639.47         399.36          27.73        -689.75        3614.25         498.25
         471.42          23.29         794.79       -1478.29        4179.86         929.85
         118.49         246.02         758.73        -728.85        3596.67         476.21
         354.30          72.51        2084.79       -2911.69        4391.17        1028.68
         339.12          59.24         930.15       -1188.60        3851.15         715.12
         723.41         117.16          57.46        -505.72        3598.76         506.99
         274.88         147.00        2037.10       -1984.41        3516.51         402.80
         571.04          52.65        1641.48       -1671.20        3397.11         176.99
         742.93         142.97        1552.01       -2022.75        3575.91         469.38
         254.76          39.55         186.35          45.09        3465.30         278.30
         124.32         128.13        3817.13       -3498.02        3419.51         198.54
          10.64          33.25        1177.37       -1053.37        3823.19         704.95
         121.73          57.25        1074.76        -661.49        3398.81         224.69
         196.38          80.44        4179.95       -3863.12        3397.43         240.81
         245.19          94.39        2717.18       -2855.14        3789.46         647.78
        1475.47         354.85        1126.31       -2543.92        3578.38         477.36
         855.63          73.13        1520.19       -2141.18        3683.30         599.93
         648.24          33.16        2033.87       -2234.65        3510.46         378.82
         111.27         270.26        1734.65       -1520.99        3395.91         205.77
         194.06         145.48        3344.24       -3217.91        3525.19         422.82
         157.53         120.71         247.41         -54.13        3519.57         435.15
         724.46         221.05          21.08        -401.52        3425.98         279.66
         643.39         220.62        1347.69       -1796.35        3575.72         473.12
         525.21         151.03        1562.20       -1613.14        3365.78         120.69
         382.45         187.12         221.30        -230.54        3430.76         323.83
          83.61         394.64         830.48        -876.61        3558.94         457.15
          79.92         299.42         706.11        -927.68        3833.30         712.04
         530.98         128.10        1065.20       -1271.67        3538.47         413.75
         364.21          26.29        2096.52       -2266.76        3770.80         624.59
        2200.88          27.57         962.07       -2935.11        3735.65         632.56
         321.93         162.23        2884.53       -2897.71        3520.10         401.05
         193.43          62.98         907.58        -807.82        3634.90         513.26
         187.58         275.65        1458.56       -1452.78        3522.05         425.52
         374.80         441.04        2749.41       -3434.79        3860.62         717.22
         488.03          26.54         207.63        -486.02        3754.89         649.33
         343.59         234.51         220.80        -214.91        3407.09         235.98
         854.60         253.36        3368.73       -3837.24        3351.60         164.94
         192.26          64.55         146.61         -59.77        3647.43         580.70
         672.15          97.45        1649.09       -2354.11        3926.49         764.07
          88.27         267.05        2092.53       -2271.92        3815.15         699.49
          75.36          45.64         837.53        -350.92        3383.46         111.26
         199.52         179.34         498.68        -593.25        3706.78         610.76
         376.31         183.92        1187.30       -1235.89        3479.44         329.15
         604.17          70.25         430.21        -940.47        3826.90         678.33
          93.29         266.12        1851.17       -1812.06        3592.55         540.06
         337.28          39.30        2029.52       -1805.44        3390.41         166.69
          39.33         271.13        3322.45       -3097.25        3455.44         244.84
         657.20         353.83         781.74       -1445.59        3643.90         545.09
          74.92         102.30        1129.19        -854.07        3538.72         462.54
         320.45         235.91        1515.83       -1620.97        3539.85         406.16
         415.50          15.09         167.74          -9.94        3402.67         223.55
         519.39          87.67         411.44        -511.99        3484.56         360.28
         177.14         155.92        4715.39       -4515.86        3458.50         327.98
         288.80         136.52        1073.96       -2024.52        4516.31        1117.63
         361.15         175.95        2160.22       -2210.83        3504.58         387.18
         121.49          33.09        2328.82       -2032.88        3540.55         394.51
         972.51           6.94         803.02       -1339.30        3547.90         402.84
         862.96         522.83        1121.85       -2127.88        3611.31         495.98
         314.42         213.06        1321.66       -1304.26        3446.18         365.70
         610.50          38.83           0.15         -39.49        3381.08         273.07
         527.29         249.85        3910.75       -4493.82        3797.00         690.08
         409.71         133.24        1135.89       -1160.54        3472.77         296.26
          99.03          81.18         522.32        -230.75        3519.29         394.19
         280.63         141.72        1507.92       -1936.93        3997.73         804.37
         951.32          64.84        1973.95       -3367.50        4368.45        1042.75
         942.35          93.88        1033.64       -1464.48        3385.69         270.96
          48.52         400.75        5174.03       -5091.19        3458.95         309.96
         104.93         459.15        3119.71       -3318.31        3625.60         532.38
         169.02         158.04        2595.58       -2717.96        3786.38         678.29
        1019.57         118.66         222.15        -883.46        3514.17         454.70
         741.16         173.76        1983.90       -2628.17        3720.40         622.43
         351.69         106.24        1471.05       -1361.62        3423.72         285.35
         462.54         216.25        2927.29       -3365.95        3750.93         625.46
          59.41          19.51        1938.18       -1427.45        3401.41         255.11
         931.83         146.30        1265.11       -2090.05        3737.87         637.34
         473.61         174.46        1108.94       -1134.46        3368.51         122.26
         203.33         152.57        4007.06       -3845.49        3473.60         359.05
         462.69          91.50        4289.91       -5102.24        4249.21         998.16
         204.01          55.25        2549.56       -2276.55        3458.83         285.59
         240.31         150.70         150.51        -350.08        3799.62         678.56
         145.92          67.83        3150.42       -2848.92        3475.81         328.92
          34.44          58.74         459.11        -107.38        3546.17         435.46
         434.26         102.00        1263.11       -1549.46        3741.18         646.92
         168.67         149.42        2597.32       -2342.44        3418.10         264.92
          80.44         214.21        2436.26       -2229.24        3489.42         342.59
         784.72         273.73         660.76       -1293.98        3565.85         459.80
         298.21          55.12         526.80        -679.66        3790.61         680.71
         437.58          82.99         423.56        -362.68        3409.64         250.77
         111.68           2.92         442.19         -88.91        3523.19         412.25
         785.49         492.23         544.72       -1344.66        3513.28         416.64
         901.24         158.48         240.42        -771.07        3462.01         334.57
          74.22         252.96        1078.75        -969.67        3554.82         429.92
         254.70         428.47         661.43       -1350.02        3996.50         829.28
         398.17          75.48         320.78        -222.18        3418.81         263.02
         101.04           2.63          87.60         103.95        3695.85         635.97
         280.03         286.86        1673.39       -1644.71        3395.50         123.82
         387.99         132.32        1076.55       -1322.76        3716.99         594.20
         569.88         428.75        2837.81       -4114.59        4269.22         999.52
         363.18         220.91         888.30       -1042.46        3561.15         467.46
        1066.53         359.29        2381.95       -3424.37        3607.67         507.26
         265.53          48.80        3269.84       -3059.81        3466.71         363.10
         260.77          56.42        1002.33        -920.65        3592.20         531.07
         557.07         189.08        2082.75       -2486.04        3648.21         543.66
         512.43          55.23         268.83        -717.72        3872.30         727.90
           4.29         205.30        3967.16       -3604.51        3418.82         275.93
         214.27          41.27         271.50         -16.44        3480.49         344.49
         694.23           5.59        2459.06       -2975.29        3807.47         674.26
         200.73           7.49        1835.56       -1523.15        3470.45         350.67
         391.09          70.58        2191.26       -2170.90        3509.03         409.55
          26.65          42.99        1263.83        -834.68        3492.28         366.73
         443.80         401.83         119.27        -515.43        3541.60         437.18
         518.70         121.74         582.98        -832.06        3599.71         510.58
         229.87         475.40         405.31        -653.96        3534.47         432.87
          68.87          73.06        1414.25       -1362.27        3797.14         684.47
          78.03         106.47         651.67        -918.62        4073.53         884.38
         220.56         398.13         422.35       -1036.52        3986.55         814.36
         347.32         454.21        1485.28       -1659.15        3363.44         156.42
          64.01         114.36        4173.96       -3842.04        3480.77         392.46
         533.82         175.60        1323.37       -1511.04        3469.33         349.71
        1003.24         270.20        2297.84       -3201.83        3621.62         534.72
         723.20         397.94         935.85       -1551.03        3485.12         341.86
         382.37         323.10         421.03        -596.74        3461.32         290.52
        1120.62          72.30        3664.13       -4634.31        3768.31         656.88
         206.25          14.17         549.63        -388.65        3609.65         522.79
         398.43          22.92        1294.90       -1187.70        3462.52         352.03
         234.08          50.12        1439.42       -1231.94        3499.39         367.96
          96.70         272.28         110.77        -821.85        4333.17        1017.07
         521.21          70.40        1347.46       -1417.37        3469.38         307.20
         350.36         193.51        3094.34       -3161.91        3514.78         375.74
          22.77         399.52         718.39        -724.09        3574.48         489.80
          16.81         109.09         811.84        -447.71        3501.04         424.52
         216.51         458.97         268.59        -498.83        3545.84         447.32
         678.08         180.30         208.41        -539.81        3464.09         329.50
         140.85          57.69        1090.53        -793.28        3495.29         371.34
         864.30         203.49         860.14       -1591.52        3654.65         536.85
          38.22         110.34        1815.62       -1967.34        3994.22         817.90
         116.03          82.45         248.47          74.19        3469.94         351.07
         492.96          55.76        4548.10       -4469.28        3363.53          81.99
         172.62          74.73         834.06        -600.56        3510.23         439.05
         480.54         202.78         228.15        -480.42        3560.02         471.48
         134.56          23.11        3044.29       -2606.33        3395.45         235.36
         773.58          77.98          49.61        -542.21        3632.10         506.65
          42.08         101.41        2201.46       -2254.46        3900.58         772.83
          70.76           8.38         829.25        -373.68        3456.37         356.05
          25.04           2.96        1831.96       -1234.15        3365.27         133.26
          87.45         369.23         896.32       -1039.60        3677.67         606.40
         337.64         110.42          32.00          45.79        3465.24         293.88
         160.28          15.33        1115.67        -891.73        3591.53         502.45
          69.71         116.61        3775.53       -3394.06        3423.28         229.71
         294.11          15.92         955.83        -882.75        3607.97         490.05
          69.28         262.26        1586.98       -1679.12        3751.67         623.07
         182.45          50.79        2550.98       -2160.38        3367.25          54.06
         285.93         498.86        3368.39       -3731.65        3569.55         482.46
         386.63          76.08        1530.21       -2188.12        4186.26         941.78
         766.26         167.93         612.31       -1078.81        3523.36         410.63
          81.72          68.61        1587.03       -1273.36        3527.08         414.69
        1027.01         322.86        2009.04       -2899.58        3531.76         402.36
         565.13         155.20        1883.10       -2828.65        4216.29         949.69
         638.47         115.85         480.55       -2221.44        4977.65        1299.04
         454.06         795.28         790.47       -1623.68        3574.92         490.77
         920.34         118.06        1062.26       -1928.90        3819.30         688.88
         127.41          27.39        1924.06       -1493.13        3405.34         228.73
         729.10          35.78        4217.25       -4688.27        3697.20         581.41
         596.98          15.68        1553.96       -1694.60        3519.04         408.66
          64.22          54.70          70.06         389.90        3412.19         220.92
          39.53          56.97        4624.00       -4157.30        3427.89         288.98
         166.50         245.39        1299.47       -1246.45        3526.16         413.32
         207.11          45.43         529.26        -643.62        3852.89         744.38
         199.79          18.46        1399.97       -1274.51        3647.36         574.45
         613.78          17.43         301.03        -417.58        3476.41         378.55
         224.79          10.25        1149.56       -1502.24        4108.71         900.03
          81.27         161.18        2181.64       -1877.21        3444.19         258.03
         311.21         416.00        3209.30       -3496.13        3550.70         462.06
         227.63         140.91        1269.81       -1091.45        3444.18         341.51
         302.54         161.34         532.44        -555.23        3549.99         471.85
          92.00         194.59        3715.88       -3493.44        3482.02         360.29
         167.36         210.61          28.61         165.12        3419.39         262.21
          97.30         293.69         758.63        -729.44        3570.87         508.68
         541.08          83.61         376.26        -613.59        3603.73         521.38
         305.14          15.75        1335.73       -1247.40        3581.86         475.04
         266.81         191.70        1538.26       -1799.44        3793.74         680.51
         530.89         225.83        3063.07       -3676.55        3847.82         725.08
         207.21         117.88         660.10        -411.98        3417.87         290.06
         328.79         208.45        3412.19       -3691.46        3733.08         622.49
         194.85          12.71         334.96        -147.61        3596.15         436.33
        1389.78          32.35        1024.64       -1822.85        3367.16         149.34
         536.21          92.74        1316.73       -1350.31        3395.69         171.39
         813.09          17.80        1790.51       -2165.52        3535.19         437.37
          89.72         106.66        1017.44        -732.56        3509.81         382.64
          12.44          37.13        2882.94       -2348.75        3407.32         180.11
         216.02          82.15        1723.58       -1671.13        3640.47         540.06
         435.72           3.36         867.81        -744.69        3428.90         325.74
         137.60          36.92         938.64       -1229.53        4107.43         897.48
         732.85         326.62         149.63       -1033.79        3815.75         691.23
         374.63         104.10         414.76        -749.45        3847.03         723.12
         371.97         731.75         650.06       -1263.42        3500.72         442.70
