   #Erot(W)cm-1    #Speed(m/s)
         178.54         423.10
          76.94         315.64
         540.67         178.11
        1579.04         554.10
         438.74         504.63
         924.34         231.36
         157.25         600.99
         469.03         726.86
          52.41         628.63
          74.59         601.06
         950.03         597.62
         627.97         128.47
         535.73         770.13
         153.82         363.92
         104.93         550.12
          60.12         441.57
         138.11         483.44
         257.98         265.76
         269.25         788.76
         420.73         559.10
          34.70         399.07
         168.20         314.61
         133.49         554.31
          74.10         559.62
          83.03         506.91
         283.31         691.26
          73.21         366.56
         134.11         663.50
          62.61         332.20
         481.62         484.99
         158.29         878.90
         197.17         586.50
        1204.42         952.64
          81.74         909.86
          24.16         535.53
         488.68         356.09
         159.29         719.64
         218.09         490.11
         334.71         582.72
           8.70         638.05
         189.69         436.36
          76.66         564.75
         522.75         483.66
         358.10         454.76
          82.89         525.12
         379.20         893.17
         322.98         236.52
         339.69         509.22
         145.60         270.86
         671.45         368.01
          84.93         260.40
         637.78         556.37
         540.20         589.67
          26.30         474.54
         559.16         451.80
         231.33         435.75
         255.00         312.50
         237.65         202.80
         125.62         511.70
         638.54         479.58
          89.92         266.15
          50.86         444.42
         508.00         884.61
         179.66         410.25
         138.55         447.50
         457.83         196.70
         246.58         429.14
         120.55         473.38
          88.74         437.56
         248.84         608.38
         212.36         942.45
         137.93         471.06
         325.48         571.85
          33.43         672.58
         380.07         656.78
          19.42         415.32
         511.35         905.69
          77.61         699.71
          81.63         702.92
         142.11         576.50
         104.80         484.28
        1060.79         620.73
         236.70         343.74
         324.93         451.21
         349.52         588.87
         916.62         745.52
         917.88         404.13
         392.66         611.99
         440.02         530.01
         495.47         607.68
         255.38         435.07
         127.26         477.83
         470.41         541.30
        1741.46         511.88
         303.77         342.25
        1228.64         344.83
          79.89         500.93
         423.61         383.24
         225.41         512.22
          74.88         198.27
         277.58         403.62
          31.66         312.81
         270.25         512.14
         788.35         342.34
         287.13         890.18
         207.96         614.65
         401.18         228.21
         247.39         666.89
         334.24         607.41
         279.19         676.73
         318.30         392.91
         400.99         789.29
         297.38         190.28
          56.39         262.26
          98.27         718.41
         126.11        1114.45
         309.16         535.98
         526.09         268.27
         307.11         515.24
        2131.88         329.40
         370.86         226.41
         217.80         524.09
          97.53         466.92
         151.53         351.55
         177.04         673.00
         397.40         642.90
         261.17         555.13
         607.14         864.11
          43.73         521.44
         574.37         334.96
          22.89         271.02
         280.26         558.87
         401.89         537.61
         187.26         741.96
          47.48         387.10
         316.92         478.53
         542.21         293.04
         339.51         756.72
         815.22        1138.41
         185.84         521.05
         321.12         637.44
         323.10         472.04
         589.05         669.99
         245.33         454.61
         240.93         366.14
         794.05         320.87
         171.03         740.75
         250.94         211.34
         163.55         707.74
         342.19         639.01
         135.65         752.88
         514.56         385.85
         340.86         411.21
         316.85         519.57
         206.73         446.34
         383.95         771.76
         843.44         322.88
         202.61         308.55
         147.32         406.12
         293.39         434.66
         428.22         760.73
         462.85         373.42
        1079.55         485.80
         847.39         614.35
          33.65         258.42
         397.27         743.08
         357.59         517.01
         277.72         227.32
         173.93         240.08
         207.13         315.90
         241.49         509.53
         491.27         706.61
         437.62         151.83
         537.52         313.53
         343.69         533.20
         395.67         399.74
         285.30         293.62
         798.65         309.71
         472.23         601.57
         280.02         396.60
         514.63         940.58
         216.62         505.66
         329.24         731.66
         200.20         581.03
         500.55         327.87
         527.03         717.14
          94.28         178.30
         251.08         292.41
         214.31         398.01
         502.56         160.62
         542.93         477.02
          43.84         426.71
        1357.39         370.85
         818.62         746.62
         364.99         546.38
         149.02         899.56
          30.40         630.40
         383.21         222.82
         710.52         774.55
         923.56         728.28
          28.18         590.01
          14.65         412.66
         333.32         577.01
         559.65         475.96
         299.55         292.93
         315.68         255.15
         943.84         488.99
        1229.09         365.46
          63.79         562.52
         407.00         295.43
          93.53         231.67
          84.04         403.48
         299.28         348.57
         661.63         765.28
         949.71         480.17
         416.73         418.05
        1209.18         571.35
         348.93         455.82
         346.54         288.01
         207.09         288.43
          19.75         342.36
         209.73         354.16
         112.40         610.22
         182.42         764.79
         257.90         605.75
         831.07         223.89
         129.08         348.22
        1005.42         423.46
         100.62         341.83
         195.79         788.09
         623.56         300.65
         649.67         757.62
         242.65         289.78
         269.90         656.32
         164.61         652.54
         800.25         499.30
          11.26         603.31
         536.73         630.34
         245.25         588.25
         326.25         446.76
         509.04         318.90
         319.74         487.14
         375.75         998.31
          78.63         823.86
         290.07         752.10
        1203.37         487.51
         110.95         468.12
         778.81         622.56
         176.36         454.18
         457.12         508.19
         671.95         379.69
         181.47         490.55
         486.59         409.07
         198.63         243.95
         131.48         304.69
         391.53         430.82
         455.57         343.23
         885.58         622.34
         877.78         209.97
         444.22         643.58
         446.49         379.45
         197.62         505.59
         234.37         608.14
         153.54         417.76
         335.50         244.20
        1439.87         402.14
         296.07         856.65
         573.97         823.14
         151.12         482.02
         593.58         110.63
         825.72         352.70
         222.90         481.14
         377.27         824.74
         810.94         493.92
         183.02         194.29
         381.14         682.34
         694.18         509.02
         494.73         370.15
         455.62         396.22
          31.41         432.09
          49.77         378.40
         364.79         316.03
        1433.86         505.33
         282.05         436.61
         201.67         401.91
         190.67         298.21
        1012.46         448.43
         426.45         611.28
        1244.20         353.72
          79.99         327.08
         802.70         619.36
         496.03         361.94
         551.29         372.33
         377.41         811.08
         850.51         590.45
         662.13         369.72
         231.14         401.04
         644.95         313.56
         307.99         352.00
         449.57         582.96
        1049.52         543.12
        1309.97         624.55
         177.09         518.61
         476.33         838.33
         277.34         375.78
         651.62         679.26
         202.23         214.41
         230.84         715.36
         563.67         539.47
         815.81         571.33
         164.53         634.62
          62.77         289.18
         802.69         411.29
         530.69         880.92
        1092.46         561.29
          52.54         288.80
          56.58         273.47
         239.13         598.30
          87.96         430.46
         271.33         615.25
         285.19         409.79
         275.48         489.34
         252.93         573.90
         158.24         553.82
         806.35         576.10
        1136.05         674.29
         180.53         560.39
         293.04         493.57
         123.07         553.08
         360.37        1103.92
         709.87         507.93
         641.75         240.46
        1462.50        1102.91
         642.04         572.98
         534.16         247.06
         264.83         580.23
        1049.46         214.05
         403.89         690.87
          35.88         892.31
         279.10         246.19
         163.96         622.79
         476.56         335.41
         368.98         228.53
         357.66         356.40
         798.24         268.99
         819.66         274.11
         153.01         769.27
           5.47         325.96
         273.85         433.39
         485.86         561.50
          17.53         446.69
         393.59         484.25
         139.71         337.74
         265.20         625.55
         324.75         493.27
         712.09         637.22
          55.47         903.78
         388.79         555.96
         445.60         189.60
         276.76         303.01
         649.51         453.62
         289.28         766.35
         149.42         558.41
          32.23         613.32
         141.76        1445.53
         456.24         486.85
          76.67         554.79
         154.34         581.79
          98.72         260.52
         334.31         797.16
         247.12         363.66
         181.95         520.37
         112.33         397.95
         356.75         511.00
         252.16         227.20
         530.68         441.22
         184.80         414.13
         483.70         772.29
         262.24         572.59
         852.60         454.30
         562.97         470.09
         404.52         501.84
         276.70         327.02
         212.86         441.81
         124.18         983.80
         292.50         852.58
         313.08         652.52
         330.94         351.85
        1157.13         601.10
           8.17         821.48
          73.61         712.03
         616.71         379.22
         459.36         772.69
          51.38         509.94
         126.45         582.90
         153.87         492.63
        1074.72         369.78
         381.78         354.49
         400.46         332.60
         396.60         737.80
          55.89         467.69
         211.22         779.19
         166.76         436.46
         249.18         630.57
         792.66        1206.85
         656.34         331.16
          85.11         323.34
         617.02         431.50
         464.99         410.99
         855.65         272.70
         607.25         531.01
         262.32         433.21
           7.94         297.36
        2686.38         427.96
         322.46         429.55
         189.68         342.33
         734.87         242.77
         551.58         277.54
         600.74         756.78
         319.69         414.21
         492.62         450.95
         209.81         289.50
         152.12         711.62
         379.11         566.47
         139.88         446.23
         559.83         163.84
         277.50         434.39
         357.05         907.62
         588.49         371.35
         565.14         381.84
         507.73         958.73
         428.27         433.62
         551.31         275.87
         399.76         346.98
         210.96         530.84
         149.25         524.53
         153.35         368.20
         208.67         686.80
         454.07         316.73
         380.26         609.77
         162.24         343.62
         646.53         442.29
          97.01         727.15
         141.80         397.62
         337.44         471.12
        1391.20        1052.00
         480.70         756.97
         424.97         561.99
         222.81         177.49
         100.28         539.61
         981.58         102.77
         367.17         254.92
         245.86         670.56
         319.52         426.45
        1398.77         653.38
          64.60         536.68
         589.08         280.72
         687.32         363.20
         369.24         538.50
         213.13         170.36
         532.99         486.18
          33.28         716.24
         261.11         346.70
         119.87         504.09
          20.23         556.90
         234.79         297.25
         878.77         819.47
         149.46         753.62
         619.47         240.85
         516.71         718.88
         761.81         440.30
         268.21         418.05
         333.70         795.05
         257.14         368.06
         303.00         639.75
         196.58         540.35
          70.11         245.16
          78.53         187.30
         119.54         706.28
         273.16         598.13
         166.62         396.73
         891.95         168.15
         123.09         843.58
         102.19         207.12
         554.98         185.76
         201.77         348.92
         347.82         825.09
         517.03         409.48
         388.87         231.19
         732.46         504.07
         332.08         822.57
         508.39         554.13
          40.04         533.72
         125.22         436.83
         101.55         664.88
         177.42         356.48
         182.12         562.93
         644.33         535.50
         411.57         236.08
         475.04         915.40
         667.25         393.46
         998.83         170.49
         468.73        1007.09
         516.66         569.91
          51.56         617.03
         301.18         718.99
         414.91         536.99
         131.91         627.26
         721.29         198.50
         655.53         442.52
         351.29         509.92
          80.51         611.56
         290.81         670.32
         270.96         361.97
         761.47         362.69
         215.99         448.53
         235.39         448.20
         292.77         295.18
          89.15         658.25
         189.38         795.97
         235.66         423.03
         136.67         151.73
         559.41         696.71
         194.48         510.35
          94.82         355.26
          52.47         269.65
          85.10         740.26
          86.29        1017.89
         194.83         493.39
         365.01         189.79
         223.93         511.30
        1312.51         519.31
         839.18         232.98
         320.20         616.40
          10.82         668.76
         491.85         774.23
         337.34         692.26
        1136.21         578.58
          20.07         246.96
         390.31         432.74
         236.61         495.25
         650.71         534.05
         608.38         528.21
         420.43         616.71
         770.15         496.57
         543.98         431.65
         193.24         837.35
         287.36         227.00
        1256.65         408.30
         410.96         673.51
         473.94         805.13
         384.00         944.17
         651.08         185.70
         576.83         369.87
         649.35         505.24
         105.32         540.91
         397.59         847.41
          51.67         258.33
           1.90        1143.67
         813.78         527.34
         846.86         546.58
        1109.46         550.59
         666.03         763.79
        1030.71         621.85
         465.45         394.27
         286.86         823.54
         326.74         698.10
         131.57         598.57
         296.83         577.63
         213.88         528.58
         366.11         222.28
         615.30         336.15
         396.82         316.39
        1017.08         315.55
         168.64         419.39
         349.51         372.96
         210.77        1055.79
         233.48         342.03
          36.94         484.66
         241.50         251.88
         263.23         474.45
        1076.70         409.05
           2.53         118.53
         464.09         321.48
         185.16         570.55
         416.68         957.44
         654.45         522.48
         948.42         565.17
         148.60         201.69
         390.53         398.89
          49.17         361.49
         653.99         613.95
         362.80         741.41
         844.41         402.26
         664.58         660.45
        1785.71         261.58
         536.81         473.69
         264.82         730.49
          52.06         544.45
         634.30         199.55
         719.27         441.77
          74.63         503.02
         282.54         792.01
         286.79         601.69
         281.15         556.84
         107.44         296.71
         537.33         626.99
          90.50         675.61
         123.76         463.48
         685.80         830.70
         782.93         170.27
         311.34         538.61
         272.09         180.85
         176.15         473.72
         273.98         358.37
         312.69         452.59
         185.66          90.72
         703.81         360.96
         175.53         338.74
          11.65         434.38
         114.60         644.80
         969.34         504.17
         363.28          72.39
         228.81         677.25
         362.36         457.40
         123.08         361.80
         186.23         843.86
         668.61         393.70
         182.97         337.99
         291.86         579.85
         546.57         344.33
         506.07         381.41
         446.08         719.98
         317.34         479.63
         151.77         654.89
         207.48         333.71
        1104.42         498.88
         135.24         614.78
         418.33         369.89
         146.13         934.88
          99.75         396.52
         368.15         410.16
         133.95         565.00
        1053.72         877.58
         448.64         531.16
         199.84         493.80
         197.94         402.54
          22.20         552.94
         514.84         831.36
         395.76         444.78
          81.75         249.54
         158.59         367.44
        1010.40         325.27
          68.90         560.01
         393.94         676.96
         356.34         557.20
         429.62         396.92
         403.61         242.66
         336.14         232.43
         667.72         400.25
         199.57        1082.03
         200.40         589.21
         459.36         227.86
         838.36         282.61
         430.08         498.84
        1159.44         526.63
         599.98         473.77
         130.78         594.24
         361.08         535.20
          79.35         883.28
         349.10         567.44
          99.10         248.52
         220.48         282.95
         286.25         493.00
          24.97         298.74
         182.68         489.20
        1168.68         602.65
          13.41         221.67
         642.30         364.61
         733.42         454.89
         858.36         439.87
         195.34         565.93
         339.86         392.79
          99.32         420.60
         566.66         474.53
          53.52         879.77
          27.55         687.42
         201.99         817.55
        1401.15         434.57
         205.98         345.24
         116.91         273.04
         146.06         220.33
         180.23         637.40
         724.67         894.32
         240.80         700.47
        1181.88         429.99
         207.09         970.68
         241.94         445.40
         216.91         418.82
         972.11         647.35
         647.24         625.23
          49.30         162.82
         301.94         495.56
         291.62         557.06
         373.79         360.88
         726.34         401.19
         372.42         583.02
         415.44          95.55
          56.79         502.79
         450.74         345.15
          67.91         799.63
         309.31         154.97
        1019.22         739.44
         144.51         434.46
         527.67         334.34
         270.33         548.27
          98.35         495.65
          98.26         465.24
         211.53         426.45
         334.41         460.81
         376.07         264.94
         693.45         329.30
         393.26         185.55
         117.24        1059.47
         187.00         501.69
        1342.91         627.64
          72.70         637.89
         621.06         467.51
         570.80         399.73
         260.07         518.03
         477.38         547.79
         137.16         556.86
         200.07         266.10
         292.21         918.84
         520.34         508.50
         679.60         577.52
          90.32         420.66
         723.69         402.69
         171.39         398.25
          26.79         569.14
        1104.34        1024.15
         579.56         592.65
         262.07         624.58
         190.41         411.99
          49.66         338.79
         864.67         465.68
          57.18         814.67
         871.20         104.94
           8.27         863.58
         216.78        1104.79
         814.34         434.11
         139.47         414.48
         301.28         323.75
         186.39         636.57
         368.21         220.88
          81.12         527.77
         915.70         616.56
         495.90         666.35
        1697.92         472.64
         242.75         443.96
         608.52         688.53
          52.45         561.88
         278.51         525.47
         233.09        1061.32
         167.46         589.66
          83.49         612.42
         247.42         578.14
         302.90         604.11
         746.01         543.07
         160.84         699.88
         556.18         647.15
         119.67         821.07
         364.61         388.78
         320.53         436.72
         787.11         573.16
         460.69         873.15
         404.47         727.69
         177.03         479.72
         654.41         480.69
         351.95         197.00
         226.23         433.64
         293.91         505.05
          17.16         641.85
         548.21         419.21
         438.31         504.18
          30.21         407.32
          93.40         217.63
         145.38         638.48
         601.12         108.69
          18.24         514.99
         545.33         780.23
         594.33         353.03
          47.01         281.71
         174.04         304.19
          87.08         289.21
         144.06         348.36
        1051.71        1089.81
         302.89         152.42
          99.53         230.74
         177.52         360.31
          72.40         685.76
          98.92         383.19
         245.04        1112.46
         535.02         717.88
          72.07         217.48
         144.73         370.34
         785.37         179.23
         426.00         348.87
         281.24         851.90
         216.67         377.98
        1244.10         452.83
         366.99         256.19
         480.69        1152.58
         166.11         542.90
         318.30         658.15
         146.00         255.38
         888.67         226.58
         131.93         280.57
         423.45         679.60
         387.90         662.07
        1195.94        1210.39
         912.30         642.66
         188.06         552.97
         385.54         468.51
          65.56         355.81
         199.30         485.43
         222.55         597.96
         212.30         457.90
         217.22         249.04
         382.19         502.37
         762.47         299.61
         180.61         284.79
         363.02         462.76
         522.43         622.76
         109.40         555.55
         459.40         394.87
         531.38         356.92
         796.93         561.58
         323.00         573.22
         153.58         221.91
         321.20         755.17
         758.32         473.80
          71.15         583.06
         336.83         523.79
         506.97         390.22
         575.77         630.71
         700.60         749.68
         113.66         617.33
         252.45         309.16
         193.95         215.61
         387.85         487.32
         554.66         304.15
         526.76         454.80
         558.08         687.64
         232.91         445.27
         252.78         515.05
         274.05         816.52
         555.83         732.61
         431.52         595.22
         336.95         434.01
         235.13         508.57
         109.30         788.30
         119.49         463.54
         655.36         901.84
         532.99         367.07
         409.15         453.37
         298.72         434.20
        1149.25         216.74
         469.01         215.75
         946.31         454.04
         209.81         538.21
         469.12         546.71
         474.94         211.19
         131.08         345.58
          36.25         335.89
         572.22         466.03
         143.08        1048.29
         450.07         538.52
         317.91         337.89
         442.72         629.80
        1105.72         745.83
         214.58         750.54
         202.53         903.66
         288.86         282.29
         557.99         427.24
         230.01         419.38
         185.10         310.66
          38.75         170.67
         338.52         343.04
         283.37         477.84
         291.62         466.35
         222.26         414.25
         762.11         582.12
         655.84         447.10
         741.96         375.80
          69.24         697.62
         529.64         648.13
         156.75         434.02
          57.43         386.54
         274.47         385.22
         742.35         575.74
        1129.85         339.55
         224.08         461.37
         556.50         395.72
          28.67         523.69
         250.06         568.68
         296.65         790.57
         407.62         665.80
         347.37         256.33
         346.81         620.55
         357.60         631.04
          23.14         536.96
         305.86         142.96
         448.35         431.03
         661.14         595.64
         555.98         489.59
         195.90        1018.99
         705.11         676.19
         392.34         311.62
        1352.16         181.25
        1140.23         451.98
         150.44         503.59
         528.59         443.98
          23.59         381.78
         115.73         384.63
         617.61         463.19
         752.39         274.56
         825.36         798.43
          46.37         463.56
         476.21         140.49
          76.32         736.42
         153.04         249.39
         586.47         172.72
          62.91         982.37
         159.18         425.45
        2127.12         154.05
         264.50         264.67
          95.27         653.25
         357.44         541.96
         702.58         899.66
          85.94         442.96
         427.53         258.58
         378.11         374.72
         279.54         584.00
         188.36         339.47
         501.00         280.99
         444.71         966.29
         194.26         226.77
         150.61         757.14
         128.30         375.17
         377.98         274.76
         449.89         435.65
         244.59         289.30
           5.05         169.18
        1007.70         404.52
         455.17         239.94
         257.59         354.17
         101.68         603.73
         242.30         536.45
         760.07        1023.93
         525.75         150.77
         271.40         508.51
         123.43         520.20
         476.73         500.22
         487.54         727.74
         225.39         610.90
        1350.53         315.35
         511.72         338.13
         124.33         397.86
         127.84         341.07
         645.94         591.21
         711.53         545.44
         170.72         854.67
         144.70         190.82
          44.42         463.20
          15.81         445.37
         158.11         528.43
         293.80         307.36
         609.00         382.29
         365.64         110.55
         557.71         450.60
        1400.44         333.22
         316.54         627.23
         739.65         793.70
         480.51         295.94
         588.55         635.67
          99.78         527.60
         748.96         708.01
         461.81         488.57
         581.53         551.94
          76.50         360.49
         414.11          90.41
         755.54         638.25
         306.34         590.69
         168.74         461.36
         309.78         407.80
           3.09          82.40
         911.14         717.52
         171.53         703.51
        1185.10         561.12
         224.95         969.80
         190.47         703.00
         729.05         352.79
          56.16         352.53
         358.91         811.28
         351.22         294.31
         602.05         371.32
         207.42         936.00
         526.71         479.82
         118.92         986.85
         369.71         589.03
         867.03         607.74
         458.93         497.90
         244.34         225.69
         667.78         495.95
         164.17         868.77
         134.56         346.49
          85.58         324.87
          86.74         448.56
         152.55         711.22
         557.05         608.62
         744.99         527.38
          90.97         536.22
         353.71         307.20
         252.33         325.81
          77.11         516.62
         543.36         605.65
         141.90         500.81
         647.74         528.71
         672.55         356.55
         434.84         190.03
         152.08         481.34
         912.06         414.17
         274.31         372.76
         211.53         374.34
         219.22         895.55
         390.93         760.60
         945.56         937.12
         451.31         471.02
         821.06         443.84
         482.62         312.10
         141.24         648.79
         250.22         751.21
          31.56         522.46
         743.21         148.42
         924.08        1377.33
         325.64         368.81
         748.06         813.11
         134.67         300.48
           0.64         213.74
         221.78         480.83
         987.54         272.64
         754.15         308.13
         641.90         853.19
         208.16         456.68
         356.28         302.87
         410.15         858.87
         273.39         621.92
         968.55         262.87
         128.66         685.78
         252.12         653.19
         773.33         553.42
         175.03         615.66
         242.09         376.22
         207.48         549.12
         806.21         480.79
         349.72         475.29
          81.19        1017.92
         814.28         554.79
          10.40         567.50
         598.96         352.00
         415.61         630.61
         535.64         312.18
         304.63         864.41
         119.69         589.56
          28.51         611.07
          61.07         237.12
         304.41         556.62
           3.19         929.08
         914.29         718.20
         339.08         377.17
         245.41         286.87
          97.98         784.45
          79.38         565.32
          99.20         553.32
         591.73         275.71
          73.63         387.06
         395.19         308.20
         473.39         127.30
         435.27         815.81
         114.10         401.97
          68.05         394.82
         216.69         503.49
         484.20         696.12
         349.92         532.55
          97.98         238.97
          60.74         683.53
         365.12         336.89
         129.42         497.10
         135.97         206.48
         445.53         122.96
        2112.98         356.42
         416.32         298.59
         307.62         681.64
          53.20         776.17
         188.08         141.56
         130.85         503.46
         128.45         668.90
         157.39         312.21
         969.28         370.41
         345.47         152.44
         454.13         844.10
          47.53         592.56
         222.79         777.56
         399.84         898.54
         709.92         365.79
         103.93         496.84
          45.46         781.25
        1335.53         616.85
         172.30         341.74
         326.26         223.03
         173.94         583.42
         854.06         553.56
          33.11         653.53
         361.43         610.68
         125.98        1021.06
         404.63         435.39
         189.43         266.94
         531.69         474.89
         149.57         657.18
         117.37         371.18
         857.47         924.82
         153.49         234.04
         238.63         466.75
         492.68         692.26
        1049.83         276.01
         709.14         491.03
          86.65         615.12
         536.91         466.82
          84.67         264.95
         524.00         636.78
         127.39         932.30
         141.83        1009.33
         412.25         479.70
          45.88         312.54
         606.61         361.96
         185.27         829.99
         174.65         925.68
         306.49         426.03
         607.20         515.63
         255.06         661.66
         182.41         417.42
         253.63         428.80
         461.80         790.02
         136.05         659.67
         324.03         372.46
         580.96         742.60
         931.05         911.75
         669.92          67.66
         286.75         773.49
        1668.87         330.49
         123.16         257.52
         241.75         401.43
         186.93         580.15
         838.68         524.49
           8.65         590.73
         806.61         639.05
         816.21         818.49
         167.41         273.72
         372.49         591.47
          52.47         370.46
         560.28         619.08
           3.60         834.31
         327.96         971.99
         218.57         642.66
         141.75         532.02
         171.07         760.37
         176.50         357.32
         314.14         401.73
         756.80         488.97
         367.32         270.50
        1908.61         652.15
         594.38         213.29
         664.46         667.01
        1102.47         571.31
          40.38         599.33
          32.80         222.99
          52.73         465.68
         276.74         494.92
         163.65         407.30
         776.21         386.78
        1030.02         670.10
         106.06         168.73
         481.70         841.03
         191.81         319.03
         326.23         642.72
         307.55         923.43
         236.72         563.54
         483.70         259.23
         244.34         506.76
          45.65         381.60
         300.24         556.77
          55.95         697.21
         164.82         479.94
         819.88         673.86
         455.29         165.03
         274.38         481.39
         253.07         340.84
         183.97         572.29
          38.84         409.93
         140.97         505.78
         372.90         705.85
         267.03         527.79
         690.32         861.83
         250.86         987.42
         645.58         873.62
         312.37         575.16
         438.39         388.12
          81.28         392.45
         804.68         475.12
         116.63         799.85
         423.68         340.60
          90.27         516.20
         295.98         365.68
         751.85         657.38
         196.60         377.56
         506.16         359.97
         363.19         988.45
          75.28         508.57
         292.44         737.24
        1294.65         427.30
         998.72         530.14
         810.19         435.37
         327.09         342.95
         149.03         431.10
          99.10         360.33
         551.14         550.38
         196.76         491.36
         497.03         742.61
         573.32         552.23
        1355.78         346.46
         321.31         508.53
         252.29         385.17
         305.81         553.40
         153.16         782.46
         209.86         637.54
         130.12         189.27
         167.17         463.69
         573.32         628.88
         325.03         240.64
         211.31         162.76
         101.18         451.10
         180.79         616.72
         311.29         619.71
         200.50         527.27
         137.37         537.34
        1364.56         802.30
         255.27         568.24
         353.09         786.28
         181.32         755.13
         217.34         522.97
         630.06         454.39
          23.80         598.94
         245.75         454.02
         103.21         321.75
         412.67         501.12
         574.76         476.29
         183.10         381.42
         135.87         865.46
         116.95        1061.31
         219.76         843.81
         521.44         742.75
         238.41         696.90
         134.63         691.41
          84.30         181.00
         632.74         506.39
         955.63         601.04
         446.49         382.75
         438.02         530.53
          98.26         510.61
         372.86         595.01
         392.40         246.91
         162.20         573.25
         707.33         603.63
         264.72         750.34
         835.72         262.33
         208.79         405.95
         999.60         376.01
         480.67         591.44
         145.35         424.63
         335.33         377.13
         385.87         764.91
         260.89         645.15
          49.91         266.56
         136.06         435.38
         580.62         828.66
         210.24         499.25
         813.70         746.01
         558.03         104.67
         250.54         355.12
         229.22         254.59
         735.81         615.55
         288.16         426.99
         244.13         417.72
         237.41         836.35
         569.84         513.22
         703.46         366.60
         543.17         501.73
         846.46         311.96
         469.01         130.01
         570.10         492.42
         143.56         289.16
         170.31         377.10
         310.37         570.77
         564.02         169.27
        1375.57         247.60
         344.01         532.55
         684.99         537.48
         208.87         626.52
         145.66         392.78
         830.16         690.23
         191.76         705.82
         201.77         836.71
         254.90         200.89
         321.25         361.25
         246.25         564.66
         133.63         422.18
          31.16         280.84
         217.30         466.10
         392.80         659.83
         345.22         311.91
         103.36         354.72
         477.13         631.99
         221.18         570.85
         569.54         213.33
         190.84         382.31
         322.45         784.00
         348.93         208.55
         164.61         473.17
         414.14         449.96
         341.81         282.60
         307.33         372.96
         125.26         402.92
         379.83         887.80
         819.54         226.12
         548.35         616.07
         552.55         572.13
         279.39         329.63
          48.72         398.28
         462.02         478.23
         160.44         319.60
          42.81         519.82
         581.97         525.63
         112.65         835.99
         561.37         682.81
         325.40         144.39
         192.10         741.83
         776.39         202.48
         816.62         407.11
         127.00         692.41
         547.82         391.14
         452.03         437.00
         113.94         170.48
         688.10         319.76
         242.33         476.60
         571.16         543.34
          96.93         561.37
         491.57         612.20
         149.78         582.28
          42.17         756.58
         319.81        1016.45
         614.84         572.16
         543.65         573.54
         178.67         336.53
         323.45         181.97
          81.19         690.46
         260.63         490.65
          64.76         499.13
         125.56         275.39
         228.76         535.76
          55.45         859.71
         116.74         343.78
         446.98         506.98
        1195.45         405.59
         741.75         254.21
         209.08         519.39
         155.96         180.23
         230.63         413.27
         444.63         306.48
        1015.30         677.33
          37.06         156.23
        1701.57         447.25
         860.23         670.07
         741.99         463.43
         875.91         584.23
        1157.47         373.10
         690.31         459.11
         737.53         337.31
          38.94         638.84
         933.58         148.33
         457.40         389.77
         432.73         533.58
          62.92         634.91
          69.98         109.80
          10.33         860.41
         578.90         321.13
          94.90         596.95
         418.77         386.40
         206.48         871.82
         107.05         745.00
         615.12         960.45
         106.63         545.72
        1439.23         610.50
         129.69         866.67
        1408.26         392.30
        1457.48         361.17
         127.45         242.11
           9.15        1067.89
          78.98         574.28
          72.91         614.24
          64.19         224.14
         151.90         293.89
         781.87         408.99
        1042.02         630.09
         667.75         202.32
         156.82         640.20
         423.85         516.18
          30.00         666.02
          33.51         454.59
          75.95         192.53
         372.69         464.76
         441.79         758.98
        1644.10         111.01
         405.03         248.74
         191.74         904.99
         325.48         473.61
         615.42         364.33
         381.82         629.42
         749.76         496.71
         371.93         861.42
         494.19         369.54
          77.50         546.02
         628.54         442.28
         682.85         386.94
         306.98         918.47
          34.91         758.17
          61.95         528.72
          99.81         266.85
         332.60         412.08
         144.34         348.61
         476.79         435.77
         216.39         489.07
         451.35         445.10
         701.58         753.85
         319.80         592.61
         110.57         421.66
         554.67         542.78
          58.92         593.20
         224.49         606.67
         184.24         634.15
          80.34         662.65
         150.62         798.95
         910.62         222.26
          60.64         770.17
         420.91         325.79
         202.87         277.37
         275.54         183.05
         171.75         748.34
         664.12         827.72
         503.96         404.70
         403.44         823.89
          78.55        1115.06
         102.29         427.99
         184.88         270.39
          51.47         266.30
         490.65         254.36
         697.88         723.83
         262.88         367.96
         400.53         474.09
         204.48         340.33
         378.72         314.22
         495.38         440.26
         238.95         609.68
         105.44         539.39
          31.28         612.53
         365.21         527.44
         415.50         540.31
         268.68         222.04
          21.11         325.08
         450.32         382.74
         179.74         301.53
         245.50         661.30
         215.05         406.60
         177.67         599.50
         111.59         337.44
         280.48         232.56
         380.85         566.52
         108.01         325.30
         230.86         283.40
         339.92         451.27
        1117.93         704.11
         118.89         412.81
         142.52         553.81
         342.89         390.08
         427.44         138.13
         207.09         957.32
         337.55         370.34
         295.93         507.06
         967.78         157.92
         893.87         563.80
         515.18         868.90
         310.39         630.63
         159.46         475.10
         152.51         529.32
          84.67         347.43
         257.80         292.07
         686.06         470.18
          19.94         638.05
          51.52         487.79
          27.74         527.00
         126.12         692.36
         836.28         623.20
         777.67         815.34
         327.27         832.06
         258.65         446.75
         192.36         769.07
         371.94         598.49
         588.92         339.74
         168.73         684.34
         173.25         302.85
         145.96         680.65
          85.90         465.61
         357.91         290.45
         227.03         467.93
         522.49         344.30
         298.51         553.30
         243.04         690.00
          57.98         489.13
         208.23         334.21
         129.03        1231.52
         260.54         486.91
         297.84         566.91
         933.81         256.10
          57.51         309.74
         106.47         499.44
         103.32         729.71
         923.76         189.35
         499.14         435.68
         220.11         146.26
         795.27         388.26
         194.10         430.61
         674.36         997.27
         275.29         653.05
         301.28         348.49
          30.97         165.17
         587.80         469.78
          94.26         322.38
         335.39         165.04
         401.59         503.30
         329.42         651.23
         792.39         882.54
         806.87         378.70
          91.03         486.50
         264.58         557.00
         409.94         358.96
         979.62         490.04
         332.02         259.43
         235.79         316.20
         569.03         526.49
         540.97         648.03
         315.34         343.24
         107.35         514.78
         448.96         174.10
         246.93         859.82
        1172.55         740.24
         517.16         890.36
         223.14         640.27
         452.18         578.83
         420.31         395.40
         222.27         620.89
         270.44         452.28
         660.51         485.08
         379.47         249.36
         422.73         173.88
         954.50         120.98
         161.54         212.13
         154.25         572.93
         559.98         452.64
        1525.68         681.24
         348.07         337.06
         103.46         378.31
         473.29         315.72
          73.82         486.89
         241.92         734.60
         467.28          46.94
         314.27         409.17
         434.70         563.47
         113.23         292.29
         164.90         518.29
        1446.10         629.76
         514.38         743.35
         429.63         264.45
        1494.10         881.10
         523.64         338.88
         160.66         248.77
         755.66         727.93
         357.16         825.98
          92.67         695.87
         563.57         356.42
          63.41         333.90
         336.32         197.81
        1138.73         332.08
         247.82         526.91
         139.26         358.80
         564.99         673.71
         254.82         463.09
         693.51         436.19
         114.58         407.41
         185.89         625.59
         273.25         512.87
         265.80         516.57
         103.31         157.49
         399.06         496.56
         806.64         183.45
         595.29         402.44
         232.40         227.01
          72.32         437.67
         695.56         768.08
         702.81         260.21
         640.01         841.28
        1728.98         637.29
         167.04         439.45
         989.94         179.55
         187.38         141.47
         395.19         483.84
         560.79         547.85
         428.63         568.38
          36.25         376.48
         160.52         469.68
        1249.50         768.43
         367.65         199.95
         482.96         407.34
         389.35         174.34
          32.20         184.46
         593.39         504.58
          38.48         479.17
           5.04         395.49
         666.45         534.74
         734.27         566.87
         523.20         361.04
         133.77         572.56
         191.80         349.98
         271.38         656.88
         248.44         846.97
        1025.32         801.31
         123.75         325.82
          90.26         558.73
        1326.23         342.30
          78.78         736.93
         153.52         595.81
         179.27         364.43
         648.84         738.07
         119.08         653.13
          41.07         389.19
         268.58         664.00
          82.28         692.83
          19.28         574.69
         503.43         538.24
         700.78         892.11
         214.78         353.66
         245.12         545.54
         249.94         883.34
          69.39        1098.17
          62.83         308.60
          66.50         511.41
          15.03         478.69
         333.02         612.72
         603.74         516.78
         339.73         494.23
         762.45         394.18
         402.15         367.60
         655.77         159.80
         351.31         213.89
         795.71         660.17
         209.85         399.86
         402.77         436.54
         221.63         603.99
         191.80         704.92
         387.73         284.71
         199.03         365.59
         711.81         318.74
         538.12         440.23
         193.20         498.88
         848.86         118.59
         425.00         208.12
        1125.93         464.25
         407.74         372.73
         184.87         329.95
          54.43         546.52
         148.45         391.14
          86.46         834.82
         884.97         437.31
         177.78         385.80
         221.57         344.67
         908.48         230.06
         445.53         430.41
         900.89         455.10
         405.45         435.71
         350.66         742.64
          62.66         698.70
         395.05        1009.91
         252.31         415.24
         341.12         444.86
         240.02         338.19
         613.35         301.86
         100.15         286.39
         410.53         405.02
         101.39         699.04
         117.07         444.13
         574.24         843.23
         390.72         509.62
         595.43         327.32
         932.32         557.08
         191.36         476.78
         640.57        1069.90
          83.08         954.54
         280.18         541.44
         342.13         622.13
         363.83        1026.61
         946.87         473.17
         697.05         702.63
         358.30         322.93
         173.69         826.85
         204.37         344.34
         143.63         362.70
          82.47         415.44
         237.37         547.59
         337.96         953.43
         646.26         238.96
         178.07         226.21
         768.21         398.41
         121.34         596.32
         323.76         479.94
         241.25         581.08
          83.11         556.94
         396.01         280.50
         383.77        1097.60
          78.15         477.76
         168.73         469.49
         753.92         616.90
         233.16         394.76
         459.66         288.07
         131.83         517.24
          98.50         584.89
         138.54         350.24
         274.90         898.34
         433.71         441.29
         247.63         265.19
          59.91         510.59
         320.39         391.90
         346.00         836.92
         298.92         439.13
          97.10         669.28
          12.53         225.91
         104.11         700.46
        1087.87         493.26
         169.69         543.35
         703.74         446.30
          36.60         532.80
         167.72         445.67
         301.67         763.71
         178.21         578.86
          11.69         670.51
         254.29         354.23
         761.94         369.04
         210.89         539.96
         309.02         517.00
         305.03         683.87
         510.11         105.61
         441.09         733.34
         118.45         473.31
         100.43         431.32
         128.46         224.16
         166.70         377.45
         174.79         484.64
         234.56        1112.07
         160.95         338.33
         183.90         314.84
         184.35         790.12
         116.74         405.93
         213.32         717.73
          29.81         605.91
         334.70         304.63
         595.21         325.39
         237.55         390.39
         240.07         494.62
          30.82         814.84
         107.26         387.88
         570.75         585.11
         370.17         316.50
         595.42         375.58
         339.06         637.81
         633.16         286.64
         224.81         285.24
         303.17         579.65
         142.93         428.00
         158.10         517.75
         396.40         664.18
         811.85         353.65
         354.05         591.99
         587.36         489.20
         117.75         281.58
         224.81         531.81
         104.13         484.25
         287.85         896.39
        1121.97         343.43
         639.85         725.85
         210.67         759.62
         425.44         492.26
         354.17         893.50
          32.57         731.51
         554.27         523.37
         509.62         794.62
         455.87         362.21
         166.91         287.35
         233.57         331.40
         163.91         631.07
          97.44         778.14
         167.84         394.66
         223.08         271.76
         628.10         467.02
         802.91         200.94
         384.89         568.20
         250.57         568.68
         268.06         735.04
         153.87         216.33
        1040.86          71.94
         208.04         884.97
         911.57         539.25
         117.99         254.00
         545.67         447.79
         189.38         748.98
         260.62         724.66
         740.30         565.64
          39.96         501.10
         179.62         528.86
         631.46         170.57
         297.15         391.47
         272.11         411.94
        1013.73         493.75
        1567.16         505.47
         375.99         571.34
         500.73         970.09
         301.88         299.95
         335.73         431.19
          67.53         251.81
         323.33         567.89
          84.86         283.43
         219.20         567.55
         579.92        1059.63
         501.62         619.60
         494.11         978.46
         449.07         643.81
          41.33         932.94
         361.02         444.17
         525.71         446.32
         327.49         292.48
         383.32         244.53
         277.09         425.30
         369.46         160.82
         398.49         801.37
          87.11         467.98
         819.60         567.75
         142.35         503.20
         433.52         371.60
         385.77         531.80
         715.85         323.61
         248.13         661.65
         601.08         413.95
          22.43         296.95
          24.62         327.15
         580.55         644.98
         344.03         507.38
         916.64         401.64
         317.04         621.43
         784.39         763.14
         773.44         567.66
         555.80         366.14
          47.52         555.66
         521.72         450.69
         132.58         559.63
         637.14         943.84
          36.62         365.04
          52.23         477.66
         148.16         628.30
          23.13        1012.98
        1828.87        1137.14
           8.73         204.61
         654.32         297.74
         293.57         639.86
         317.28         323.13
         100.11         463.90
         301.43         309.60
         108.87         506.15
         127.10         442.08
         470.27         310.75
          87.39         836.37
          94.69         485.39
         639.86         684.01
         686.56         452.64
         695.61        1015.41
         362.57         626.85
          30.46         720.67
          97.08         280.73
          57.44         657.39
         409.66         617.78
         252.63         376.22
         500.63         639.85
         717.07         484.46
         560.86         428.28
        1115.65         624.74
          84.96         295.64
         829.60         651.26
        1732.40         238.09
         483.48         541.44
         219.32         295.28
         784.77         591.03
          94.89         242.36
         574.34         626.93
         271.94         213.42
         370.63         890.56
          72.40         534.29
         415.90         304.58
          28.53         257.58
         634.87         339.07
         157.65         251.36
         740.84         267.46
         112.82         485.52
        2034.92         521.03
         147.16         187.67
         275.06         278.97
         444.81         481.85
         323.17         766.21
        1297.44         311.45
         726.57         509.34
         453.85         215.10
         189.81         502.70
          13.48         890.00
         370.19         492.10
          16.72         373.44
         250.78         791.44
         696.90         667.72
         148.80         225.19
        1703.28         176.41
         698.94         752.70
         380.59         568.90
         307.93         146.04
         855.25         849.86
         386.60         486.17
          20.89         896.96
         419.73         412.31
         618.52         224.09
         364.20         528.01
          18.25         354.79
         100.53         487.96
        1467.36         187.62
          61.84         466.94
         293.03         406.17
         165.87         305.46
         605.49         469.57
         172.37         430.89
         162.32         434.17
         293.43         456.78
         394.86         520.16
         119.63         671.11
         193.22         786.76
         158.36         493.95
         193.79         367.85
         216.50         258.76
         244.26         404.97
         409.67         943.12
         394.93         902.14
         186.94        1139.68
         702.98         161.05
        1198.40         395.43
         216.35         739.19
         616.51         153.42
         637.83         453.02
         103.76         590.08
         289.60        1047.03
         244.97         350.83
         755.60         264.21
         503.72         635.83
         466.12         373.37
          37.07         669.67
         570.83         854.68
         294.83         248.68
         505.89         521.83
         728.05         515.35
           9.09         452.73
         260.72         143.97
         225.97         262.90
        1183.94         743.50
         705.34         520.62
         294.95        1056.29
         889.52         119.13
         339.14         411.54
          63.78         305.52
         591.89         657.70
          61.68         517.53
         812.43         558.67
         757.11         345.78
         335.46         547.91
          94.86         208.22
         967.49         380.12
         297.83         424.00
         114.55         374.76
         288.58         424.98
         256.67         704.44
          69.86         525.85
         223.70         465.27
          37.05         882.94
         575.90         446.04
         393.42          74.92
         724.37         244.95
         592.45         687.38
         630.60         826.86
          99.17         296.88
          93.60         509.68
         653.22         353.95
         370.19         659.70
         795.86        1063.35
         726.48         559.49
          34.76         397.32
         259.54         386.40
         190.25         140.47
         266.86         223.46
         478.32         553.32
          75.17         674.94
         140.28         232.31
         639.47         498.25
         179.38         756.76
         471.42         929.85
         118.49         476.21
         277.32         363.69
         103.24         698.72
         179.33         587.95
         354.30        1028.68
         208.87         747.34
         771.18         503.74
         254.23         274.55
         339.12         715.12
         723.41         506.99
         133.29         445.89
         279.43         471.16
          28.86         398.53
         574.62         458.84
         274.88         402.80
         571.04         176.99
         742.93         469.38
         254.76         278.30
        1069.41         716.09
         124.32         198.54
         547.90         378.05
          10.64         704.95
        1685.85         359.60
         703.95         858.88
         342.26         643.17
         749.27         709.08
         121.73         224.69
         196.38         240.81
         749.31         513.27
         705.95         533.55
         245.19         647.78
        1475.47         477.36
         209.84        1105.48
         463.15         458.86
         855.63         599.93
         648.24         378.82
         111.27         205.77
         194.06         422.82
         365.37         663.83
         157.53         435.15
         724.46         279.66
         702.76         591.99
         643.39         473.12
         629.84         797.76
         525.21         120.69
         382.45         323.83
          83.61         457.15
         283.20         620.65
         424.08         416.32
          79.92         712.04
         167.73         828.09
         677.07         878.81
         530.98         413.75
         364.21         624.59
         499.65         277.43
        1056.11         832.77
        2200.88         632.56
          91.37         641.22
         321.93         401.05
         899.88         209.43
         193.43         513.26
         187.58         425.52
         129.87         383.67
          66.79         495.61
         553.70         350.06
         139.04         469.87
         926.10         523.30
         123.74         373.66
         286.15         231.44
         214.58         482.08
        1101.55         676.97
         569.32         489.26
         996.52         344.48
         296.12         777.48
          39.66         605.96
         374.80         717.22
         658.21         624.88
         488.03         649.33
         343.59         235.98
          98.08         246.68
         411.96         159.80
          82.15         862.31
         273.32         408.06
          77.01         596.05
         636.73         272.06
         450.96         582.69
          55.18         417.93
         369.13         285.78
         622.84        1367.38
         244.47         891.11
          14.26         310.36
         402.34         136.18
          50.92        1142.43
         372.08         257.92
         192.26         580.70
          98.58         674.87
         450.95         502.93
          22.24         474.98
         351.12         706.40
         631.19         685.12
        1106.84         236.45
         644.44         683.45
         202.90         688.51
         337.05         846.27
         759.35         452.32
          33.94         391.55
         657.93         271.44
         672.15         764.07
          88.27         699.49
         583.38         461.24
         376.43         634.60
         239.64         416.36
         934.14         692.62
         195.35         795.30
          75.36         111.26
          76.14         186.95
         148.72         975.07
         418.15         308.62
         284.38         532.19
         682.78         381.88
         145.54         694.88
         199.52         610.76
         278.22         389.73
         401.59         754.93
         376.31         329.15
         631.47         575.27
         604.17         678.33
         401.86         356.61
         977.02         790.90
         359.76         780.61
         135.20         358.86
         230.98         545.03
         378.81         472.97
          93.29         540.06
         355.39         481.56
         396.75         332.37
         337.28         166.69
         526.78         447.91
         321.26         445.59
         565.45         462.53
        1513.90         601.78
          39.33         244.84
         657.20         545.09
          74.92         462.54
         320.45         406.16
         415.50         223.55
         519.39         360.28
         140.83         733.31
        1042.58         888.52
         177.14         327.98
         415.78         578.14
         288.80        1117.63
         565.66         418.85
         303.50         580.54
         125.58         430.31
         254.22         675.45
         361.15         387.18
         121.49         394.51
         148.64         529.10
          84.05        1342.90
          38.74         409.58
         266.02         456.51
         148.43         584.89
          44.03         658.74
         529.19         315.30
         216.71         222.72
         207.51         309.47
         712.37         383.01
         972.51         402.84
         220.58        1072.84
          91.29         343.99
         489.63         439.71
         470.31         405.13
         462.73         261.19
         404.91         474.08
         380.46         468.57
          17.31         543.19
         659.51         970.16
          74.99         535.06
         331.33         508.32
         862.96         495.98
         123.82         276.86
         314.42         365.70
         491.36         166.87
         139.86         645.20
          66.28         265.61
         610.50         273.07
         139.05         283.15
         145.67         519.03
        1207.31         115.21
         235.59        1034.04
         367.96         276.94
         222.62         235.01
         541.97         754.34
         122.45         553.60
         527.29         690.08
        1502.16         433.13
         820.44         721.90
          89.74         320.41
          62.98         852.45
         227.04         567.96
         523.97         964.04
         409.71         296.26
         439.21         373.32
         211.56         677.73
         951.32        1042.75
          97.85         177.47
         179.73         241.93
         108.04         555.51
         313.29         454.87
         153.98         436.54
         705.10         472.06
          68.86         352.27
         225.79         286.80
        1370.18         991.21
         658.30         275.09
         169.13         395.57
         833.68         428.07
         330.11         770.66
         184.80         446.60
         942.35         270.96
         185.91         503.46
         788.35         615.41
         976.84         850.12
         481.10         661.14
         114.11         576.64
        1244.59         601.14
         191.74         602.60
          48.52         309.96
          80.68         853.21
         757.24         463.91
         158.92         604.70
         104.93         532.38
         491.10         726.12
         756.90         732.72
         169.02         678.29
        1019.57         454.70
          15.22         310.56
          40.08         173.12
         129.77         549.56
         126.27         582.81
         513.42         529.73
          97.79         382.91
         322.97         266.91
         406.03         517.54
         741.16         622.43
          36.19         259.23
         351.69         285.35
         462.54         625.46
         277.92         342.19
         217.84         625.83
          59.41         255.11
         931.83         637.34
         506.51         707.46
         473.61         122.26
         290.18         442.39
         203.33         359.05
         462.69         998.16
         204.01         285.59
         463.95         564.47
         240.31         678.56
         145.92         328.92
         176.91         373.38
         132.62         425.72
        1552.52         697.01
         622.47         952.82
         445.44         216.38
         176.61         594.35
         402.96         912.26
          82.25         580.05
         198.33         380.95
         484.44         592.74
         429.75         512.24
          34.44         435.46
         434.26         646.92
         102.01         116.43
         168.67         264.92
          80.44         342.59
        1776.57         633.85
         495.53         540.45
         183.82         851.68
         784.72         459.80
         644.51         426.54
         298.21         680.71
         793.52         587.42
         437.58         250.77
          69.59         799.41
         644.78         291.26
         282.37         256.88
         315.28         477.15
         116.95         740.36
         160.82         510.14
         138.47         720.83
         388.28         513.96
         111.68         412.25
         785.49         416.64
         647.53         486.73
         180.11         477.17
         209.65         465.32
         187.87         783.11
         124.43         509.46
         244.34         234.37
          17.62         697.80
         235.89         597.79
         901.24         334.57
        1317.27         236.81
          74.22         429.92
         270.25         296.04
        1398.93         349.72
         378.47         848.31
         868.18         437.50
         254.70         829.28
         218.53         423.66
         461.10         646.45
          15.56         488.37
         398.17         263.02
          13.17          84.76
         249.85         605.17
         101.04         635.97
         280.03         123.82
         199.42         216.86
         101.14         477.60
         548.81         851.14
         387.99         594.20
        1120.64         421.97
         186.85         244.87
         177.75         396.47
         102.16         657.12
         573.94         471.52
         569.88         999.52
         363.18         467.46
        1066.53         507.26
         265.53         363.10
         416.61         655.88
         411.53         310.79
         260.77         531.07
         128.12         275.63
         263.21         425.49
         557.07         543.66
         512.43         727.90
         369.26         597.55
           4.29         275.93
         147.09         980.90
         214.27         344.49
         283.72         700.59
         694.23         674.26
         810.24         865.86
         349.45         709.54
         602.59         203.34
         237.83         353.65
         392.99         263.24
         129.50         664.27
        1134.55         486.46
         200.73         350.67
         391.09         409.55
          26.65         366.73
         786.64         466.10
         285.20         729.01
         443.80         437.18
        1922.57         737.07
         960.98         592.13
         518.70         510.58
         229.87         432.87
          57.95         852.98
         189.03         736.09
         130.80         559.07
          68.87         684.47
          78.03         884.38
         787.27         494.04
         487.66         163.83
         220.56         814.36
         379.04         347.28
         239.40         414.09
         347.32         156.42
          64.01         392.46
         386.61         474.24
         389.15         838.82
         533.82         349.71
        1003.24         534.72
         723.20         341.86
         382.37         290.52
          71.24         383.50
        1120.62         656.88
         206.25         522.79
         781.95         632.88
         440.39         553.87
         653.16         752.40
         475.92         312.05
         398.43         352.03
         162.73         205.06
         234.08         367.96
         132.75         495.64
          96.70        1017.07
          84.73         436.52
         156.32         762.16
         210.82         402.05
         336.88         376.99
         167.90         179.93
         789.40         746.92
         521.21         307.20
         311.62         732.44
         207.32         553.83
         609.25         686.05
         350.36         375.74
          22.77         489.80
         162.30         752.79
         956.45         745.54
          67.98         570.73
         294.13         553.93
         178.48         866.10
         201.69        1498.91
          16.81         424.52
        1607.95         750.30
         450.13         658.03
         356.38         691.11
         216.51         447.32
         479.17         304.89
          61.72         403.75
         636.64         669.18
         237.69         401.76
         678.08         329.50
         630.54         335.04
        1252.08         485.31
         884.19         157.64
         882.17         379.69
         303.74         636.72
         261.70         563.52
         409.85         403.73
         569.29         332.20
         961.93         212.82
         140.85         371.34
         506.57         724.97
         619.22         741.44
         256.75         809.70
         221.88         625.21
         313.81         539.74
         864.30         536.85
          38.22         817.90
         116.03         351.07
         492.96          81.99
         345.32         475.42
         172.62         439.05
         548.61         272.92
         480.54         471.48
         616.04         783.78
         395.89         373.91
         275.21         526.46
         234.02         329.66
         129.33         189.97
         134.56         235.36
         526.20         288.55
         384.96         674.39
         909.76         556.88
         773.58         506.65
         308.19         246.69
          42.08         772.83
         147.86         637.33
         287.82         465.81
          70.76         356.05
         413.03         352.26
         201.46         475.21
          63.35         218.48
          55.34         256.09
          25.04         133.26
          87.45         606.40
        1326.72         724.07
         337.64         293.88
         524.90         283.13
         237.56         796.14
         160.28         502.45
         885.34         319.60
         141.90         939.03
         879.23         217.19
          41.83         516.06
         186.96         390.56
         452.27         463.13
          61.16         559.83
         695.81         363.33
          53.77         253.74
          69.71         229.71
          36.08         293.56
         927.83         248.41
         577.79         186.60
         294.11         490.05
         212.92         324.00
         135.67         417.55
         441.05         608.31
         403.81         362.62
         621.12         740.50
          69.28         623.07
         182.45          54.06
        1152.84         749.78
         535.07         897.43
         285.93         482.46
          43.91         481.04
         386.63         941.78
         766.26         410.63
         509.14         234.35
          81.72         414.69
        1027.01         402.36
         160.34         269.19
          60.90         236.38
         565.13         949.69
        1451.21         647.75
         638.47        1299.04
         454.06         490.77
         920.34         688.88
         127.41         228.73
         297.85         348.21
         729.10         581.41
         596.98         408.66
          64.22         220.92
          39.53         288.98
         128.47         250.34
         166.50         413.32
         207.11         744.38
         199.79         574.45
         211.62         484.58
         228.32         262.82
         613.78         378.55
         224.79         900.03
          81.27         258.03
         374.91         287.14
         255.93         741.43
         215.01         374.86
         150.31        1047.40
         620.51         323.93
         311.21         462.06
         227.63         341.51
         302.54         471.85
         211.66         902.88
        2144.12         233.24
          92.00         360.29
         288.41         452.20
         167.36         262.21
         907.58         860.04
         302.81         515.33
          97.30         508.68
         541.08         521.38
          18.91         536.13
         219.07         906.29
         559.94         461.18
         305.14         475.04
         147.93         265.75
         130.84         312.19
         266.81         680.51
         530.89         725.08
         929.88         794.45
         478.00         492.39
         493.93         285.19
         207.21         290.06
         830.15         689.37
         243.99         737.03
          96.91        1078.38
         498.34         869.78
         697.98         580.83
         858.25         302.48
         146.49         304.83
         148.60         182.12
         328.79         622.49
         274.13         533.56
          93.23         529.26
         194.85         436.33
         484.95         943.08
        1135.62         140.55
         753.52         579.54
         212.18         487.70
        1389.78         149.34
         103.92         287.25
         570.37         277.22
         117.73         873.46
         286.76         542.07
         536.21         171.39
         813.09         437.37
         664.56         759.44
         207.10         369.49
          62.89         369.87
         180.93         413.15
         114.56         258.32
          89.72         382.64
         439.25         348.18
          12.44         180.11
         463.76         549.45
           3.54         282.84
         367.69         751.76
         156.56         634.90
         216.02         540.06
         575.43         575.41
          21.60         648.78
         435.72         325.74
         892.88         371.33
         137.60         897.48
         732.85         691.23
         374.63         723.12
         298.67         611.64
          45.37         480.93
         442.42         626.52
        1118.48         414.55
         558.60         773.60
         371.97         442.70
         327.16         340.42
         277.97         411.48
         675.92         467.57
         443.65         159.40
         896.68         483.00
        1263.48         185.88
         319.75         393.11
         735.12         752.30
         179.68         362.67
          29.29         317.50
         290.66         668.52
         331.44         607.04
         130.03         850.65
         385.50         507.69
           6.39         261.03
         575.69         393.29
         150.16         494.30
         289.14         788.80
         655.02         289.01
         352.67         183.68
         295.94         413.11
         289.66         582.19
         326.42         569.12
         910.16         217.70
         157.78         768.57
         339.21         415.90
          50.87         378.26
         425.38         787.15
         135.75         234.97
         371.89         256.18
         601.69         630.98
         221.02         544.05
         330.06         847.88
         379.01         379.09
         202.81         452.51
         151.14         315.02
         431.31         857.47
         122.05         263.28
         912.06         751.09
          76.97         635.18
         262.25         432.39
         249.42         793.61
         271.26         759.32
         113.54         418.24
         362.11         651.74
         281.29         821.83
         413.94         520.99
         628.94         366.28
         734.06         219.66
         482.55         684.75
         193.74         552.58
          62.18         604.44
         353.69         372.31
         212.08        1169.47
         304.99         330.49
         217.89         405.17
         407.69         355.17
         421.41         748.64
         884.60         648.94
         810.78         571.86
          99.33         457.25
         964.02         312.81
         277.39         588.00
         179.26         429.40
         125.47         450.59
         149.35         340.88
         460.14         319.40
         320.59         600.67
         615.29         493.54
         550.31         158.37
         625.70         605.60
         297.49         850.42
         170.31         629.53
         150.22         382.63
         244.16         278.21
         300.21         396.46
         388.46         344.83
         539.91         217.54
         214.93         654.03
          50.02         164.17
         360.37         356.08
          33.94         894.28
         660.18         603.75
         250.46        1106.56
         174.52         509.48
          99.03         394.19
         363.65         652.05
         280.63         804.37
         444.08         585.30
         831.99         594.38
         272.91         713.70
        1237.33         477.73
         106.22         284.08
         198.35         467.70
         488.15         522.78
         659.96         795.13
         386.88         636.01
         278.73         403.92
         929.81         572.22
         955.03         837.96
         323.10         392.15
          79.78         109.14
         271.84         651.91
        1436.43         641.84
         169.20         225.81
         540.02         141.96
         252.92         418.72
         110.37         466.06
          82.64         230.77
         178.67         385.42
         522.72         520.14
         567.65         496.78
         537.93         399.15
          49.91         413.71
         165.33         507.56
         736.68         158.67
        1404.30         386.84
         409.30         777.60
         443.70         443.82
         626.01         386.31
         359.25         488.23
         223.64         525.13
         552.38         605.57
         623.28        1221.16
         398.05         638.15
         406.43         472.71
         451.77         251.49
          94.82         456.64
         124.72         328.21
         530.67         314.06
         230.28         758.71
         516.42         967.65
         297.60         356.14
         657.15         552.50
         606.72         646.90
         269.63         381.90
         302.53         483.06
         526.72         306.65
        1521.86         684.51
         543.54         692.30
         376.22         672.57
         316.91         537.78
         151.97         357.15
         570.88         420.96
         193.08         890.76
         285.26         163.71
         240.26         322.13
          45.42         245.19
         577.45         625.05
         286.40         229.52
         585.90         350.13
         402.43         223.10
         491.03         267.42
         124.33         534.88
         203.92         149.06
          92.30         316.68
         142.67         415.31
         585.71         477.42
         466.28         824.01
         509.42         434.51
          40.76         486.55
         212.57         836.62
         374.86         553.10
         884.27         334.62
         732.70         262.86
         777.18         186.44
         234.67         121.75
         141.59         541.40
          64.80         382.56
         380.39         629.05
         597.21         214.98
         126.07         407.16
         439.09         426.18
          39.57         381.89
        1006.69         690.44
         343.90         734.21
         137.17         139.23
          93.23         626.12
         255.21         459.00
         869.94         611.31
         860.45         949.29
         194.21         180.93
          90.93         425.34
          70.32         227.26
         997.16         320.23
         230.93         364.39
          59.24         372.80
         106.94         258.28
         110.81         395.51
         306.95         487.44
         393.80         374.19
        1627.86         510.22
         244.28         344.12
         179.19         414.66
         426.93         665.78
          57.96         492.11
         424.33         286.53
         314.20         636.86
         796.03         658.37
         277.29         362.46
          16.43         413.80
         565.39         371.52
         440.40         316.06
          96.31         748.77
         300.44         322.10
         343.09         702.29
         314.30         185.67
         100.04         603.34
         203.63         763.14
         401.54         459.69
         143.11        1129.30
         508.25         797.20
          86.74         470.21
         288.00         703.75
         177.98         287.50
          83.32         692.93
         287.88         545.07
         243.35         728.19
         448.87         927.80
         213.27         612.02
         207.08         229.81
         306.04         413.65
         242.63         399.00
         506.44         703.25
         198.14         471.33
         445.04         294.72
         133.81         510.83
         123.69         482.45
         194.62         803.94
         377.87         761.80
         241.82          45.74
         157.94         425.88
         557.73         677.39
        1206.57         520.77
         149.37         173.02
         753.93         449.22
         605.31         865.13
         361.00         336.04
         640.30         535.08
         268.73         553.44
         111.04         578.81
         506.20         218.52
          81.97         630.78
         270.85         239.87
         791.76         964.78
        1404.76         139.31
        1498.28         493.98
          99.11         339.98
         568.54         225.32
         241.75         219.99
         164.03         303.94
         642.69         346.39
         112.16         331.75
         184.44         528.71
         904.88         369.87
         304.36         898.99
         542.34         696.29
         459.53         749.54
           4.79         208.13
          78.17         453.76
         444.63         376.26
          89.49         307.69
         233.51         658.53
        1854.19         732.05
         567.18         738.55
         800.34         416.80
         466.14         205.18
         233.30         571.90
        1166.46         388.53
         430.23         260.21
         238.10         415.22
         839.36         260.65
          29.53         430.53
         196.54        1001.79
         517.88         457.18
         122.96         540.50
          61.11         648.18
         439.57         599.01
         120.95         752.51
          41.25         242.68
         261.05         489.13
         130.15         185.24
         309.93         671.11
         255.03         398.27
         251.04         619.47
          77.85         667.93
          23.38         235.20
          86.02        1093.24
         351.69         441.34
          96.94         242.53
         249.50         502.17
         412.36         707.91
        1122.32         235.23
         383.46         211.21
         148.67         878.31
         576.04         620.81
          80.72         774.77
         138.89         696.05
         597.18         326.96
         724.66         465.16
         902.45         249.92
        1482.58         512.77
         222.01         382.56
          79.04         562.53
         202.55         535.80
         309.48         472.76
        2036.93         244.42
         422.05         600.10
         124.63         580.19
         460.93         317.25
         378.97         494.10
         448.29         167.52
          42.76         815.35
         295.01         208.44
         783.07         555.55
         352.53         244.67
         199.02        1162.46
         262.47         422.95
         223.30         626.94
         113.92         552.79
          45.98         643.36
         327.48         604.77
         639.46         332.52
         633.08         158.83
         720.94         330.80
         464.30         342.32
         388.58         452.10
         727.74         619.53
         183.67         471.26
         336.64         759.23
         181.95         601.90
         720.20         233.80
         693.34         337.56
         301.23        1237.83
         413.40         598.57
         339.86         665.80
         436.01         708.76
         811.90         362.66
         537.68         495.66
         270.73         711.34
         467.83         333.55
          73.10         470.42
         466.43         978.84
         240.16         410.26
         854.60         164.94
         157.44         556.87
        1207.17         501.81
         120.69         342.13
         116.43         347.69
