 # HCl ZPE restriction,  Energy (cm-1), speed (m/s)
 #Water ZPE (DMC): 4713.0629051, HWW ZPE (DMC): 12528.93462455
 #E_given = DMC ZPE + 3550 =21233.1103893624.
 #Dvib = Evib - ZPE
 #D0 = E_given - Erot(W) - Erot(HWW) - Evib(W) + Evib(HWW) - E_COM,E_COM=0
 
       #Erot(W)     #Erot(HWW)       #Dvib(W)     #Dvib(HWW)             D0         #Speed
         438.74          76.13        2765.69       -2894.51        3163.91         504.63
          52.41         120.89         731.28        -653.31        3298.69         628.63
          74.59          12.77         757.62        -576.16        3281.13         601.06
         950.03         219.62        1117.32       -2015.11        3278.09         597.62
         535.73         250.95        1493.51       -2207.08        3476.85         770.13
         257.98         132.36         182.41          -1.15        2978.37         265.76
         283.31          97.04         120.01        -320.04        3369.66         691.26
         134.11          19.46         348.00        -274.91        3323.31         663.50
          62.61         137.53         153.49         204.46        2991.85         332.20
         481.62         242.06         512.04        -810.08        3124.33         484.99
         159.29         192.33        1592.39       -1786.49        3392.45         719.64
         334.71         153.21         228.68        -393.99        3227.36         582.72
         189.69           1.17        1922.93       -1654.13        3090.29         436.36
          76.66          44.98         798.58        -601.85        3231.58         564.75
         522.75         112.53        4009.37       -4239.77        3145.07         483.66
         379.20         234.05         462.35       -1212.68        3687.04         893.17
         322.98         203.67         296.89        -236.01        2962.45         236.52
         637.78          80.76         321.31        -705.95        3216.06         556.37
          26.30          10.02         127.59         242.28        3143.78         474.54
         255.00         302.95         778.17        -798.61        3012.45         312.50
         125.62         178.03         479.81        -363.95        3130.45         511.70
         638.54          77.33        1278.30       -1583.96        3139.76         479.58
          50.86         101.53         216.62          53.25        3127.71         444.42
         138.55         120.70        1206.99       -1007.81        3091.52         447.50
         246.58         109.81        2392.61       -2271.71        3072.67         429.14
         137.93          78.71        2103.20       -1903.85        3133.95         471.06
          33.43          30.81         471.97        -364.85        3378.60         672.58
          77.61          45.18        1930.41       -1864.08        3360.83         699.71
          81.63          11.05         311.56        -272.01        3417.74         702.92
         236.70          15.45         330.25         -70.44        3038.01         343.74
         324.93          42.79         621.58        -548.51        3109.16         451.21
         917.88           7.36         982.96       -1428.64        3070.39         404.13
         440.02         567.16         899.57       -1527.58        3170.78         530.01
         255.38         595.28         434.48        -826.27        3091.09         435.07
         470.41          55.08         388.09        -522.02        3158.39         541.30
         423.61          50.18        1789.47       -1756.48        3043.18         383.24
          74.88          81.23         377.14          80.00        2936.72         198.27
          31.66          40.67         156.71         296.10        3024.84         312.81
         270.25         114.12        2289.08       -2321.54        3198.04         512.14
         279.19          82.40        2305.00       -2463.55        3346.91         676.73
         318.30           1.36        2167.78       -2023.02        3085.55         392.91
         297.38          30.43        2167.85       -1861.43        2915.75         190.28
          98.27          16.27         447.53        -402.62        3390.52         718.41
         126.11         348.74        3092.87       -4144.46        4126.67        1114.45
         526.09         151.13         448.15        -571.95        2996.53         268.27
         370.86          66.69          10.98         147.51        2953.91         226.41
         261.17         210.76         201.33        -311.14        3187.85         555.13
          43.73           6.04        4113.33       -3793.91        3180.78         521.44
         280.26          62.90        2215.54       -2237.27        3228.52         558.87
         316.92         129.11         807.98        -824.71        3120.66         478.53
         339.51          62.14         678.24       -1006.02        3476.10         756.72
         815.22          20.26          29.77       -1467.66        4152.35        1138.41
         323.10          68.97         243.50        -238.17        3152.56         472.04
         245.33         415.83         736.32        -995.10        3147.58         454.61
         794.05           8.83        3670.17       -3940.38        3017.31         320.87
         171.03          78.64        5045.53       -5146.15        3400.90         740.75
         206.73         134.22        1608.18       -1542.55        3143.37         446.34
         383.95         282.65        1592.03       -2234.21        3525.55         771.76
         293.39         123.60        3932.33       -3912.64        3113.29         434.66
          33.65         185.32         401.02         -40.87        2970.85         258.42
         357.59         477.40         142.89        -598.55        3170.62         517.01
         491.27          46.91         653.13       -1029.89        3388.54         706.61
         395.67         137.08        2053.31       -2124.88        3088.77         399.74
         472.23          14.38        1441.23       -1639.62        3261.73         601.57
         280.02         279.24         550.97        -628.27        3067.99         396.60
         251.08          93.39        1569.98       -1350.41        2985.92         292.41
         502.56          87.20         259.37        -247.63        2948.46         160.62
          28.18         204.10        1426.51       -1348.00        3239.15         590.01
          14.65         184.11        2958.68       -2682.36        3074.88         412.66
         299.55         119.55         199.94         -75.57        3006.49         292.93
         943.84         210.41         733.35       -1495.23        3157.59         488.99
          84.04         136.88         758.75        -502.59        3072.89         403.48
         949.71          30.94        2932.38       -3494.05        3130.99         480.17
         416.73          88.19         193.70        -255.82        3107.16         418.05
         207.09          15.02         203.25         141.57        2983.05         288.43
          19.75          26.92         788.53        -313.52        3028.27         342.36
         209.73          10.46         161.52          82.23        3086.01         354.16
         182.42         201.10         902.13       -1198.10        3462.40         764.79
         257.90         322.25        1425.65       -1737.08        3281.23         605.75
         129.08          23.51        1818.30       -1436.54        3015.63         348.22
         100.62           9.76        2298.72       -1906.72        3047.59         341.83
         326.25          61.25         266.22        -218.50        3114.74         446.76
         509.04         119.39        3506.71       -3601.19        3016.00         318.90
        1203.37         215.30         454.62       -1464.83        3141.51         487.51
         176.36           4.55        3143.71       -2869.85        3095.17         454.18
         457.12          17.76         531.61        -605.86        3149.34         508.19
         486.59         199.98         262.60        -473.14        3073.91         409.07
         391.53         163.04        2772.43       -2886.75        3109.72         430.82
         455.57         151.44        4467.67       -4549.30        3024.58         343.23
         877.78          53.74        2235.98       -2591.03        2973.51         209.97
         446.49          56.64        1014.76       -1000.06        3032.12         379.45
         153.54          84.44        1438.89       -1224.78        3097.90         417.76
         573.97         140.78        1769.33       -2469.80        3535.66         823.14
         377.27          43.52        3165.27       -3590.47        3554.37         824.74
         810.94         147.14         846.94       -1413.41        3158.35         493.92
         455.62          40.55        1795.56       -1811.69        3069.91         396.22
         282.05         116.66        1373.69       -1347.24        3124.80         436.61
         496.03          37.38        1769.87       -1783.04        3029.73         361.94
         377.41         127.02        1700.80       -2210.97        3555.70         811.08
         850.51         121.26        1209.76       -1918.67        3287.08         590.45
         231.14          26.88         911.00        -673.28        3054.23         401.04
         177.09         155.03         368.60        -322.94        3172.17         518.61
         202.23          81.12        2497.65       -2224.64        2993.61         214.41
          62.77         179.74        1506.73       -1212.59        3013.33         289.18
         530.69         157.47        2322.43       -3161.63        3700.99         880.92
        1092.46         138.86        1742.24       -2656.38        3232.78         561.29
          52.54          37.18         849.76        -391.79        3002.27         288.80
         285.19          39.19         631.37        -488.91        3083.12         409.79
         180.53         251.15         550.44        -658.72        3226.55         560.39
         293.04           4.16        2852.03       -2742.72        3143.46         493.57
         360.37         127.49        1907.82       -2896.25        4050.53        1103.92
         403.89         265.49         781.81       -1252.82        3351.61         690.87
         163.96         380.64        1611.17       -1883.45        3277.63         622.79
         476.56           1.78        1414.58       -1424.93        3081.97         335.41
         368.98          62.09         430.37        -250.62        2939.13         228.53
         153.01         109.94        2954.23       -3162.98        3495.75         769.27
           5.47          32.23         963.66        -462.08        3010.68         325.96
         273.85          77.68        1129.77       -1044.53        3113.21         433.39
         485.86         313.78        2034.61       -2494.49        3210.20         561.50
         393.59         253.72        2755.62       -3003.54        3150.55         484.25
         265.20          26.26         536.17        -536.13        3258.47         625.55
         712.09          66.65        2334.27       -2856.66        3293.60         637.22
          55.47         788.50        2264.29       -3235.64        3677.32         903.78
         388.79          88.49         219.02        -355.92        3209.60         555.96
         149.42         171.56        1482.60       -1485.54        3231.91         558.41
          32.23         210.67         402.94        -338.69        3242.80         613.32
         141.76          40.87        2496.33       -3989.08        4860.07        1445.53
          98.72          32.33         685.09        -245.20        2979.01         260.52
         181.95         197.23         932.77        -956.56        3194.56         520.37
         252.16          76.66        1157.74        -909.18        2972.58         227.20
         530.68          71.15        1155.02       -1300.61        3093.71         441.22
        1157.13           7.06        1250.45       -2123.80        3259.09         601.10
         459.36          52.30          15.05        -472.87        3496.11         772.69
         211.22         220.23          35.78        -409.84        3492.57         779.19
         166.76         111.86         475.41        -290.99        3086.91         436.46
         249.18          86.46         388.49        -477.54        3303.37         630.57
         262.32          90.30        1379.45       -1267.82        3085.69         433.21
           7.94          45.32         895.53        -429.32        3030.49         297.36
         189.68           9.28        2948.79       -2588.84        2991.04         342.33
         209.81         140.10         333.18        -119.76        2986.63         289.50
         152.12         403.25         166.06        -565.00        3393.51         711.62
         277.50          43.54         521.25        -421.17        3128.83         434.39
         565.14         101.89         969.27       -1168.44        3082.11         381.84
         551.31         182.82        1115.55       -1288.37        2988.65         275.87
         210.96         224.33        2790.04       -2853.81        3178.43         530.84
         149.25          34.07         328.97        -168.53        3206.21         524.53
         208.67          28.75        1425.79       -1478.36        3365.12         686.80
         380.26         141.39         237.60        -456.15        3246.86         609.77
         162.24         148.98        1476.86       -1289.82        3051.71         343.62
         646.53         169.32         111.09        -474.56        3097.58         442.29
         337.44         125.04        1207.07       -1242.69        3123.11         471.12
         261.11          87.21        2112.75       -1954.30        3043.18         346.70
          20.23          52.19         700.93        -401.37        3177.98         556.90
         234.79           0.53         124.05         165.16        3025.43         297.25
         257.14         410.85        1460.40       -1604.69        3026.27         368.06
          78.53         230.55         222.34          64.53        2954.01         187.30
         119.54          81.96        2840.80       -2904.25        3411.91         706.28
         273.16         138.74        1381.38       -1497.34        3254.03         598.13
         891.95          20.15         696.82       -1050.45        2991.50         168.15
         732.46          48.63        1161.02       -1559.29        3167.14         504.07
          40.04          28.84         257.02          25.23        3198.82         533.72
         101.55         103.31        1195.19       -1197.92        3347.84         664.88
         182.12          13.98          61.72          54.96        3237.19         562.93
         411.57         134.77        1926.21       -1895.62        2973.03         236.08
         475.04         909.30         791.33       -2327.36        3701.66         915.40
         998.83          75.22        1115.87       -1574.83        2934.87         170.49
          51.56         148.58        4072.07       -3998.52        3276.27         617.03
         290.81           5.10         265.18        -333.40        3322.25         670.32
         761.47          55.69        3028.71       -3365.48        3069.56         362.69
         235.39         267.42         912.73        -991.28        3125.70         448.20
          89.15         654.61        1497.58       -2020.03        3328.64         658.25
         235.66         256.24         784.45        -852.44        3126.06         423.03
         136.67          63.74        1802.29       -1353.97        2901.25         151.73
          52.47         235.19         137.26         127.74        2997.28         269.65
          85.10          95.86         264.51        -329.80        3434.29         740.26
          86.29          32.73         392.81        -859.82        3897.93        1017.89
         365.01          22.86         905.62        -695.86        2952.33         189.79
          10.82         205.95        2078.10       -2087.83        3342.94         668.76
         491.85          59.15        1051.86       -1537.09        3484.20         774.23
         420.43         112.93        2989.16       -3255.29        3282.73         616.71
         287.36         160.95        1195.00       -1062.56        2969.22         227.00
         473.94          82.63        1965.40       -2526.00        3553.99         805.13
         384.00          68.48        1115.39       -1779.21        3761.30         944.17
         105.32         357.12         306.22        -401.54        3182.84         540.91
         397.59          95.88         384.48        -914.05        3586.05         847.41
         813.78         707.27           5.23       -1152.90        3176.58         527.34
        1030.71         564.64        1463.21       -2775.06        3266.46         621.85
         465.45          45.59        1398.30       -1447.16        3087.78         394.27
         615.30         101.44        6280.15       -6506.94        3060.00         336.15
         396.82         112.34        1464.02       -1423.41        3000.19         316.39
        1017.08          64.21         564.56       -1171.39        3075.51         315.55
         233.48         151.75         618.02        -480.96        3027.67         342.03
         241.50          14.53         393.17         -80.34        2981.09         251.88
         263.23          51.14        1355.61       -1245.86        3125.85         474.45
         634.30          10.61         399.75        -473.97        2979.27         199.55
         282.54         351.86         840.05       -1442.53        3518.02         792.01
         537.33         115.80         271.50        -666.36        3291.68         626.99
         312.69          51.84         167.93        -115.48        3132.99         452.59
         185.66          64.14         795.76        -423.69        2928.11          90.72
         703.81         159.01        1033.26       -1399.43        3053.32         360.96
         362.36          24.80        1909.48       -1875.26        3128.59         457.40
         186.23         415.22        1854.99       -2490.59        3584.12         843.86
         668.61           2.22         509.33        -685.55        3055.34         393.70
         546.57         154.44        1929.96       -2111.83        3030.80         344.33
         446.08         108.72        2092.04       -2486.35        3389.48         719.98
         317.34          58.50        2257.65       -2228.06        3144.51         479.63
         135.24         180.99        2547.64       -2606.73        3292.81         614.78
         418.33         208.25         510.20        -644.78        3057.98         369.89
          99.75         341.12          84.69         -22.43        3046.82         396.52
         368.15           3.16        1477.45       -1389.61        3090.78         410.16
         133.95         113.26        3672.35       -3575.16        3205.56         565.00
        1053.72         158.54         177.64       -1483.56        3643.62         877.58
          22.20         378.11          35.25        -116.45        3230.83         552.94
         514.84         104.25         882.45       -1550.13        3598.56         831.36
         158.59          78.57        2969.84       -2716.76        3059.70         367.44
        1010.40          86.14        3120.37       -3684.44        3017.51         325.27
          68.90          89.33        1500.33       -1355.02        3246.43         560.01
         393.94         524.35         281.28        -974.80        3325.20         676.96
         356.34          37.81         634.36        -671.71        3193.16         557.20
         403.61           4.22         379.45        -230.79        2993.47         242.66
         336.14         158.30        2335.87       -2241.30        2960.96         232.43
         199.57          52.41         110.48        -808.87        3996.36        1082.03
         200.40         126.81        1055.67       -1135.80        3302.89         589.21
         130.78         101.73         945.22        -878.11        3250.33         594.24
        1168.68         122.66        1739.21       -2767.76        3287.16         602.65
         195.34          29.33         356.66        -226.34        3194.97         565.93
         339.86         338.40         607.84        -815.33        3079.20         392.79
          99.32          85.15          48.01         212.45        3105.03         420.60
          27.55         354.88        1501.89       -1714.01        3379.68         687.42
        1401.15         123.43        1669.52       -2752.11        3107.97         434.57
         205.98          21.20         365.64         -52.92        3010.03         345.24
         116.91         121.87         542.88        -224.85        2993.16         273.04
         146.06         107.87         313.96          16.67        2965.41         220.33
         180.23         435.18        1891.54       -2245.25        3288.28         637.40
        1181.88          56.10        3495.91       -4279.78        3095.85         429.99
          49.30          73.33         621.13        -122.87        2929.07         162.82
         301.94          29.39        1259.44       -1236.28        3195.49         495.56
         291.62         190.68          40.61        -201.98        3229.02         557.06
         372.42         473.68         668.64       -1192.87        3228.09         583.02
         415.44          26.29        3748.42       -3539.61        2899.42          95.55
          98.35          14.80         913.43        -674.33        3197.73         495.65
         393.26         205.33         143.21        -143.06        2951.20         185.55
         621.06          15.14        1167.17       -1394.11        3140.70         467.51
         260.07          60.97         811.17        -719.05        3136.81         518.03
         477.38         272.04          38.21        -436.78        3199.11         547.79
         200.07          28.71        1986.03       -1655.60        2990.75         266.10
          90.32          80.26         433.51         -93.52        3039.39         420.66
         171.39          89.37         860.47        -642.22        3070.95         398.25
         190.41          98.38         210.02         -36.32        3087.47         411.99
         139.47         286.49         879.43        -833.97        3078.55         414.48
         186.39         144.49         811.86        -878.99        3286.23         636.57
          81.12          67.29        1860.36       -1627.38        3168.57         527.77
         495.90          73.73        2871.87       -3204.89        3313.36         666.35
         242.75          25.96        2247.83       -2038.99        3072.43         443.96
          52.45          55.29        2581.74       -2350.16        3210.64         561.88
         278.51         121.29        1129.41       -1174.23        3194.98         525.47
         233.09         258.87         722.75       -1637.67        3972.93        1061.32
         167.46          30.07         846.70        -762.03        3267.76         589.66
         247.42          61.68         847.39        -846.83        3240.29         578.14
         302.90         123.28        1067.16       -1214.56        3271.18         604.11
         160.84          27.32        1602.57       -1629.68        3388.91         699.88
         119.67         137.53          37.11        -305.32        3560.99         821.07
         320.53         493.05        1448.26       -1799.27        3087.40         436.72
         226.23          74.45          42.06         106.30        3100.92         433.64
         293.91           7.05         558.52        -498.19        3188.66         505.05
          17.16          70.05        1511.36       -1378.36        3329.75         641.85
         145.38          76.27          80.19         -93.44        3341.56         638.48
         601.12          18.51        2199.85       -2197.02        2927.52         108.69
         594.33         133.06        2552.91       -2793.62        3063.29         353.03
          87.08          34.36        1997.93       -1565.82        2996.41         289.21
        1051.71         301.76         845.88       -2707.04        4057.64        1089.81
         302.89         264.40        2225.35       -2181.91        2939.23         152.42
         177.52         112.68        3369.44       -3183.46        3073.78         360.31
          72.40          29.60         425.75        -328.40        3350.61         685.76
         535.02           5.50        1341.56       -1752.82        3420.69         717.88
          72.07          72.18        4775.80       -4307.21        2937.13         217.48
         281.24          33.27         852.37       -1251.47        3634.56         851.90
        1244.10          23.64        3507.25       -4339.98        3114.94         452.83
         366.99          11.39        2510.96       -2331.92        2992.56         256.19
         480.69          47.86        3097.53       -4253.04        4176.91        1152.58
         318.30          83.65        1613.58       -1827.03        3361.49         658.15
         131.93           4.05        2552.93       -2139.88        3000.93         280.57
         423.45         373.03        1231.22       -1817.66        3339.92         679.60
         188.06          21.94        1196.52       -1069.73        3213.15         552.97
          65.56          57.21         158.54         198.97        3069.68         355.81
         212.30         420.68        2395.16       -2593.87        3115.68         457.90
         217.22         121.67        1111.67        -882.31        2981.72         249.04
         382.19         213.25        1314.00       -1516.53        3157.05         502.37
         180.61          33.48        1825.64       -1483.19        2993.41         284.79
         522.43         294.47         953.39       -1501.62        3281.30         622.76
         109.40          25.43          57.92         144.91        3212.32         555.55
         796.93          61.85        2291.30       -2824.14        3224.03         561.58
         153.58         401.99         849.20        -810.32        2955.51         221.91
         758.32          98.24        2288.32       -2726.66        3131.72         473.80
          71.15          23.10         664.16        -482.61        3274.16         583.06
         336.83         242.20        1446.48       -1648.56        3173.01         523.79
         506.97         183.03         487.38        -674.63        3047.20         390.22
         575.77         214.24         720.40       -1235.88        3275.42         630.71
         252.45           8.95        2600.10       -2331.96        3020.41         309.16
         193.95          29.82         733.11        -371.09        2964.16         215.61
         274.05          53.38        2551.64       -2883.63        3554.52         816.52
         119.49          64.14         884.26        -643.44        3125.49         463.54
         655.36          22.23         404.74       -1219.26        3686.87         901.84
         532.99         458.59        1816.05       -2268.59        3010.92         367.07
         409.15         471.67         325.03        -756.01        3100.12         453.37
         298.72          19.16        1892.09       -1860.09        3200.11         434.20
         572.22         203.47         348.32        -721.91        3147.86         466.03
         143.08         297.66         448.80       -1265.32        3925.73        1048.29
         450.07         345.88        1468.33       -1933.61        3219.31         538.52
        1105.72          45.56        1287.57       -2339.19        3450.27         745.83
         214.58         521.33        3725.30       -4359.65        3448.40         750.54
         202.53          72.15        2022.64       -2443.41        3696.06         903.66
         288.86         137.32         112.76          40.42        2970.59         282.29
          38.75         108.97          27.02         432.84        2942.37         170.67
         283.37          83.53        1707.81       -1690.07        3165.32         477.84
         222.26         190.71        2065.36       -1999.94        3071.56         414.25
         655.84         194.40        1764.17       -2154.68        3090.21         447.10
         274.47          63.14        1051.46        -906.16        3067.07         385.22
          28.67          61.85        2074.74       -1780.23        3164.93         523.69
         296.65         108.71          48.10        -421.47        3517.97         790.57
         407.62         439.89         668.88       -1327.81        3361.37         665.80
         346.81         176.09         481.21        -785.60        3331.45         620.55
         305.86          85.19        3207.05       -2991.93        2943.77         142.96
         448.35         471.18         200.93        -699.16        3128.67         431.03
         555.98         364.65        1873.04       -2390.11        3146.40         489.59
         705.11          56.90         204.61        -773.85        3357.19         676.19
         617.61          39.70        2578.00       -2815.38        3130.04         463.19
         825.36         226.82         682.07       -1699.99        3515.67         798.43
          46.37          13.80        1070.05        -686.92        3106.66         463.56
         586.47         134.37        1126.52       -1255.85        2958.45         172.72
         159.18         226.79        1298.90       -1261.90        3126.99         425.45
          95.27          14.89         939.16        -818.38        3319.00         653.25
         702.58         161.77         156.50       -1157.78        3686.89         899.66
         378.11          16.08        4584.49       -4479.90        3051.18         374.72
         279.54         115.51        3071.95       -3128.93        3211.89         584.00
         444.71         400.62        1168.66       -2261.72        3797.67         966.29
         128.30           8.78        1045.06        -728.37        3096.19         375.17
         449.89         349.93        2283.60       -2632.22        3098.76         435.65
        1007.70         221.13        1530.62       -2263.25        3053.75         404.52
         525.75           5.80         765.47        -678.91        2931.85         150.77
         271.40          23.18         136.09         -21.47        3140.76         508.51
         123.43          76.52         515.01        -356.20        3191.21         520.20
         487.54          83.64         329.42        -744.63        3394.00         727.74
         511.72         448.61         929.01       -1355.47        3016.09         338.13
         645.94           5.00         243.01        -580.77        3236.77         591.21
         711.53         418.73         287.31       -1033.40        3165.79         545.44
         170.72         125.44        1252.55       -1618.29        3619.53         854.67
         144.70          13.70         604.67        -169.56        2956.46         190.82
          15.81          84.17        1632.36       -1276.53        3094.13         445.37
        1400.44          95.05        1331.80       -2325.83        3048.50         333.22
         316.54         219.21         932.80       -1248.01        3329.39         627.23
         739.65           9.64        1329.86       -2044.02        3514.81         793.70
         588.55          53.01        1900.98       -2293.21        3300.63         635.67
          76.50          47.56        1135.85        -748.67        3038.71         360.49
         414.11          30.37        1515.30       -1336.92        2927.08          90.41
         306.34           6.89         158.39        -175.93        3254.27         590.69
         309.78          14.58          27.02         152.22        3046.39         407.80
           3.09           5.38        4268.12       -3640.76        2914.15          82.40
        1185.10         505.46        1465.18       -2806.65        3200.83         561.12
         729.05          39.17        1190.30       -1417.87        3009.33         352.79
          56.16         416.55         611.39        -600.70        3066.56         352.53
         602.05          11.24        1702.21       -1819.91        3054.37         371.32
         118.92         263.27         737.80       -1434.24        3864.21         986.85
         164.17         150.92         347.57        -733.36        3620.66         868.77
          85.58          60.69         379.11          31.48        2993.12         324.87
          86.74          39.51         142.90         201.55        3079.27         448.56
         353.71         171.54        1976.21       -1965.39        3013.87         307.20
          77.11         351.30         555.34        -630.76        3196.98         516.62
         543.36         177.07        4361.83       -4779.09        3246.80         605.65
         434.84         109.66         151.03         -95.85        2950.30         190.03
         152.08          67.61        2416.89       -2239.32        3152.69         481.34
         821.06           1.86        1262.33       -1638.03        3102.75         443.84
         141.24          88.73          28.01         -26.80        3318.77         648.79
          31.56          36.02        1269.19        -956.28        3169.47         522.46
         641.90          71.26        1661.18       -2422.12        3597.73         853.19
         356.28         114.36        2670.50       -2608.65        3017.47         302.87
         410.15         102.11        1694.27       -2248.51        3591.96         858.87
         968.55          11.67         770.13       -1203.07        3002.67         262.87
         773.33         124.67        1431.56       -1977.93        3198.34         553.42
         242.09         212.55        1113.63       -1078.54        3060.23         376.22
         806.21         197.89        2032.66       -2620.83        3134.02         480.79
         535.64           8.86          57.08         -28.45        2976.82         312.18
         119.69         130.74        1483.10       -1412.68        3229.11         589.56
          28.51         453.36        2088.89       -2274.34        3253.53         611.07
          61.07          53.50        1954.45       -1497.86        2978.82         237.12
         339.08         272.20        1959.78       -2115.86        3094.77         377.17
          97.98         446.87          64.57        -557.90        3498.43         784.45
          73.63          46.96         817.44        -456.49        3068.42         387.06
         435.27         250.65        1877.22       -2585.53        3572.33         815.81
         216.69           7.81        2120.27       -1966.34        3171.55         503.49
         349.92         511.68        1641.43       -2134.39        3181.32         532.55
          97.98          49.11        3421.37       -2992.99        2974.49         238.97
         365.12          65.25        2260.81       -2204.40        3063.17         336.89
         445.53          86.72        1329.04       -1290.82        2979.51         122.96
        2112.98         125.78        1828.99       -3552.58        3034.80         356.42
         416.32          87.03        3527.28       -3475.70        2995.05         298.59
         188.08         213.09         253.10         -49.48        2945.16         141.56
         128.45          90.82        1999.01       -2005.79        3337.46         668.90
         399.84          81.52         484.98       -1057.10        3640.72         898.54
          45.46          71.90         602.20        -634.66        3465.07         781.25
        1335.53          25.83         560.34       -1660.55        3288.82         616.85
         172.30          58.40         858.56        -559.87        3020.57         341.74
         326.26         137.38        1532.68       -1398.18        2951.79         223.03
          33.11           9.03         682.34        -495.34        3320.82         653.53
         531.69         144.09         384.58        -676.99        3166.60         474.89
         117.37         618.69          73.52        -290.66        3031.05         371.18
         153.49          17.93         628.96        -255.91        3005.50         234.04
        1049.83         252.18         372.64       -1127.81        3003.13         276.01
          86.65          97.10         638.06        -582.62        3310.78         615.12
          84.67           0.41         317.75         166.90        2980.22         264.95
         524.00          89.92        1854.75       -2219.43        3300.72         636.78
         412.25         439.40         133.04        -589.62        3154.88         479.70
          45.88         277.98         932.04        -708.91        3002.97         312.54
         174.65          32.33         932.13       -1299.09        3709.96         925.68
         607.20          11.00         259.75        -495.21        3167.21         515.63
         255.06          91.58         573.71        -683.54        3313.15         661.66
         182.41          44.27        2385.00       -2146.92        3085.22         417.42
         253.63         100.92        1563.04       -1478.48        3110.84         428.80
         580.96         155.55        2393.29       -3032.02        3452.17         742.60
         931.05          68.58        5042.73       -6218.89        3726.48         911.75
        1668.87           9.74         652.68       -1802.88        3021.53         330.49
         806.61          35.21         916.15       -1506.03        3298.02         639.05
         560.28         210.05        2525.74       -3032.66        3286.54         619.08
           3.60         291.90         730.01       -1076.85        3601.30         834.31
         327.96          60.51        2710.28       -3352.41        3803.61         971.99
         218.57           7.00         847.94        -836.68        3313.14         642.66
         171.07           5.48          94.97        -173.59        3452.05         760.37
         756.80           1.93        1662.78       -2027.44        3155.87         488.97
        1908.61         147.79        1259.60       -3078.95        3312.91         652.15
         594.38          72.76        1246.06       -1317.90        2954.66         213.29
          52.73          30.60        1367.68        -996.08        3095.04         465.68
         276.74          57.27        2911.13       -2866.74        3171.57         494.92
         106.06           5.66        3137.81       -2664.66        2965.09         168.73
         326.23         140.92         303.99        -503.37        3282.20         642.72
         307.55         216.23         816.69       -1509.52        3718.99         923.43
         236.72         169.92        1352.07       -1448.11        3239.35         563.54
         164.82          98.25        2913.22       -2760.62        3134.28         479.94
         253.07          73.92        1610.55       -1401.13        3013.55         340.84
         140.97         222.93         562.59        -552.17        3175.66         505.78
         267.03         128.02         733.85        -729.64        3150.72         527.79
          90.27         111.38        1928.70       -1770.74        3190.36         516.20
         751.85         146.94         169.65        -835.83        3317.35         657.38
         506.16          35.52          12.84         -34.17        3029.60         359.97
         149.03          24.04         954.49        -652.23        3074.62         431.10
        1355.78         302.18         989.60       -2125.81        3028.21         346.46
         321.31          44.59        1947.25       -1955.31        3192.14         508.53
         305.81          14.44        1424.32       -1393.12        3198.54         553.40
         211.31          12.61        2907.89       -2543.69        2961.85         162.76
         255.27         267.51        1131.73       -1301.80        3197.25         568.24
         181.32          29.80         276.65        -402.51        3464.70         755.13
         183.10         130.89         102.33          74.53        3059.11         381.42
         135.87         543.34         244.27        -984.89        3611.36         865.46
         521.44          88.23        3938.61       -4426.61        3428.30         742.75
         134.63          19.18        1751.07       -1689.62        3334.71         691.41
         955.63         211.75        1246.09       -2141.51        3277.99         601.04
         208.79          41.07          88.83         125.25        3086.02         405.95
         480.67         500.30        2198.13       -2876.40        3247.27         591.44
         145.35         174.71        2272.42       -2095.85        3053.32         424.63
          49.91          63.41        1964.78       -1526.42        2998.29         266.56
         580.62         670.23        1754.44       -2994.00        3538.68         828.66
         813.70         129.56         814.72       -1623.08        3415.06         746.01
         569.84          30.05         584.24        -834.73        3200.57         513.22
         543.17         349.30        5116.23       -5609.53        3150.82         501.73
         170.31          54.46         772.28        -473.03        3025.94         377.10
         310.37         292.80        1753.03       -2036.15        3229.91         570.77
         564.02          29.13         494.86        -466.34        2928.29         169.27
         684.99           5.32        1987.59       -2324.10        3196.18         537.48
         208.87          68.81         329.54        -335.48        3278.22         626.52
         145.66         134.67        1478.17       -1261.52        3052.99         392.78
         321.25         225.51        1803.85       -1831.81        3031.16         361.25
          31.16         231.82        2678.83       -2392.71        3000.86         280.84
         392.80         113.91        1094.65       -1340.28        3288.88         659.83
         477.13         661.47        1839.34       -2679.99        3252.00         631.99
         221.18         256.43        4504.39       -4702.77        3270.73         570.85
         190.84          73.58          81.04         153.75        3050.73         382.31
         348.93          88.07        2534.89       -2356.19        2934.27         208.55
         164.61          34.80        4114.10       -3887.76        3124.21         473.17
         414.14         204.15         209.89        -385.90        3107.69         449.96
         341.81         196.88         699.25        -710.91        3022.92         282.60
         125.26         165.21         371.57        -179.15        3067.07         402.92
         552.55          45.72         716.63        -978.30        3213.37         572.13
         279.39          41.30         720.35        -494.08        3002.97         329.63
          48.72         373.06         801.25        -718.91        3045.82         398.28
         462.02         182.78         289.24        -494.59        3110.51         478.23
         112.65           2.11         703.66        -825.81        3557.34         835.99
         192.10        1197.84        1559.83       -2824.77        3424.95         741.83
         776.39         101.33        1800.47       -2084.17        2955.95         202.48
         127.00         394.69        2334.07       -2703.17        3397.38         692.41
          96.93         262.41         222.26        -230.49        3198.87         561.37
         491.57          44.31         270.13        -489.69        3233.63         612.20
         614.84         131.10        2158.01       -2603.03        3249.04         572.16
         178.67         232.04         146.49         -43.38        3036.16         336.53
         323.45          36.73        1250.40       -1013.78        2953.18         181.97
          81.19         310.17        2487.88       -2705.52        3376.23         690.46
          55.45          25.60         468.59        -581.32        3581.66         859.71
        1195.45          20.25        4316.22       -5082.44        3100.47         405.59
         230.63         234.11        2721.45       -2713.52        3077.29         413.27
          37.06         123.95        1177.52        -755.47        2966.90         156.23
         737.53          30.67         459.21        -725.90        3048.44         337.31
         457.40          56.27        1149.50       -1175.32        3062.10         389.77
         432.73         446.94        1476.94       -1978.78        3172.14         533.58
          94.90          10.10        1232.44       -1070.14        3282.67         596.95
         206.48         277.56         828.98       -1371.72        3608.66         871.82
         107.05         684.15          51.18        -697.35        3404.93         745.00
         106.63          20.64         793.55        -583.01        3212.17         545.72
        1439.23         585.84        2549.92       -4297.70        3272.65         610.50
         129.69          57.49        1545.46       -1782.41        3599.73         866.67
         127.45         187.12        3782.26       -3506.52        2959.65         242.11
           9.15          66.48         386.65        -859.51        3947.21        1067.89
          78.98         151.32        3117.14       -3029.80        3232.33         574.28
          72.91         100.58        2758.08       -2671.81        3290.20         614.24
        1042.02          14.19        2796.34       -3598.30        3295.69         630.09
         667.75          47.91        2798.10       -2929.30        2965.51         202.32
         156.82         286.27        3937.31       -4141.56        3311.10         640.20
          75.95          49.32         434.46          39.18        2951.05         192.53
         372.69           9.56        2439.10       -2424.51        3153.13         464.76
        1644.10          96.71        1462.63       -2571.02        2917.54         111.01
         325.48          84.31         369.11        -349.96        3121.02         473.61
         381.82         190.93        3627.50       -3943.25        3292.97         629.42
         682.85          40.98        1181.43       -1384.36        3029.08         386.94
         306.98         218.37         901.64       -1564.53        3687.49         918.47
          34.91         243.78        1468.49       -1669.52        3472.28         758.17
          61.95          80.93        1977.21       -1775.80        3205.66         528.72
         451.35         129.49         387.92        -528.80        3110.02         445.10
         319.80         500.19         490.83       -1023.17        3262.31         592.61
          58.92           7.08        2715.19       -2447.13        3215.90         593.20
         910.62         157.78        1792.65       -2267.18        2956.08         222.26
          60.64         229.34         518.25        -770.42        3512.16         770.17
         420.91         316.20         308.34        -524.83        3029.34         325.79
         275.54         419.77        2905.34       -3035.20        2984.50         183.05
          78.55         131.87        4372.99       -5115.95        4082.49        1115.06
         102.29           0.16         136.30         200.54        3110.68         427.99
         184.88          38.62         913.60        -564.57        2977.43         270.39
          51.47         172.66        4114.19       -3769.44        2981.09         266.30
         238.95         318.72         148.77        -414.85        3258.36         609.68
          31.28         167.04        1011.69        -933.29        3273.24         612.53
         365.21          68.76        1617.45       -1678.40        3176.94         527.44
         268.68         242.51         947.36        -877.20        2968.61         222.04
          21.11          39.75         936.44        -453.07        3005.73         325.08
         179.74          82.97          57.24         235.84        2994.17         301.53
         215.05         146.69        1033.10        -914.22        3069.32         406.60
         280.48          28.57        2106.16       -1813.90        2948.64         232.56
         230.86          34.14         951.00        -652.98        2986.94         283.40
        1117.93         252.88        3010.29       -4226.98        3395.84         704.11
         142.52         139.38        1090.86       -1008.25        3185.45         553.81
         295.93         732.65        1113.16       -1741.44        3149.66         507.06
         310.39          44.25         332.11        -486.98        3350.19         630.63
         152.51          37.86        2922.40       -2777.01        3214.21         529.32
          84.67         255.33        2458.36       -2265.70        3017.29         347.43
         257.80          53.44         987.28        -738.97        2990.41         292.07
          19.94          56.90        2414.10       -2244.21        3303.25         638.05
         777.67         210.72        1860.93       -2825.05        3525.70         815.34
         258.65        1033.42         266.98       -1119.98        3110.89         446.75
         588.92          68.62         825.72        -985.14        3051.86         339.74
         168.73         172.33         789.49        -932.07        3351.46         684.34
          85.90         160.74         613.18        -409.67        3099.82         465.61
         522.49         475.12        3946.57       -4401.31        3007.09         344.30
         298.51         212.09         722.50        -866.96        3183.84         553.30
         260.54         245.80        3590.88       -3680.30        3133.06         486.91
         923.76          73.95        1135.56       -1522.84        2939.50         189.35
         499.14          27.20         529.02        -596.38        3090.99         435.68
         795.27         100.11        1607.57       -1977.17        3024.20         388.26
         194.10          98.69        1488.46       -1323.66        3092.37         430.61
         301.28          34.22         562.13        -378.83        3031.19         348.49
         335.39         334.80         903.27       -1000.11        2976.62         165.04
         401.59         139.76         685.14        -901.96        3225.42         503.30
         329.42          56.67         416.35        -549.40        3296.91         651.23
         792.39         280.32         286.51       -1478.64        3669.37         882.54
          91.03         230.05         672.90        -611.77        3167.75         486.50
         409.94         271.98        1538.58       -1725.04        3054.48         358.96
         332.02         119.22         194.60         -62.77        2966.87         259.43
         235.79         163.49         997.71        -903.57        3056.56         316.20
         448.96         190.91        2649.92       -2663.65        2923.81         174.10
         452.18         811.80          66.26       -1031.31        3251.02         578.83
         420.31         169.28        1127.34       -1234.23        3067.27         395.40
         222.27          14.46        2883.78       -2858.15        3287.58         620.89
         161.54          26.80        1194.30        -769.95        2937.29         212.13
         559.98         115.23        1432.25       -1675.90        3118.39         452.64
         348.07          55.29        2723.87       -2589.34        3012.07         337.06
         241.92           6.73        1498.40       -1636.78        3439.69         734.60
         434.70          40.41         358.96        -501.46        3217.35         563.47
         113.23         105.17         866.23        -519.62        2984.95         292.29
         357.16         303.07        2714.02       -3405.41        3581.14         825.98
          63.41         168.01        1448.15       -1150.18        3020.55         333.90
         103.31         273.12         789.89        -594.96        2978.60         157.49
         399.06         305.03        1364.73       -1690.51        3171.67         496.56
         806.64         138.19        1337.33       -1668.69        2936.48         183.45
         232.40         138.31         344.77        -153.51        2987.97         227.01
         187.38         159.45         213.10          64.77        2925.25         141.47
         560.79          24.01        2463.41       -2682.08        3183.82         547.85
         160.52         326.30         796.12        -848.49        3115.50         469.68
         389.35          49.52        1687.03       -1495.75        2919.81         174.34
         666.45          27.44        2452.91       -2796.05        3199.19         534.74
         734.27          40.00         346.31        -787.25        3216.63         566.87
         191.80           7.43         303.89         -29.79        3076.65         349.98
         271.38         217.68        3038.28       -3308.44        3331.06         656.88
        1025.32         311.32         680.37       -2005.38        3538.32         801.31
          78.78         341.58         105.65        -399.82        3423.75         736.93
         179.27          10.38         197.43         100.82        3062.05         364.43
          41.07          18.64         975.56        -560.31        3075.00         389.19
         268.58          22.07         552.93        -635.68        3342.04         664.00
          82.28          49.14         935.16        -897.94        3381.33         692.83
         503.43          64.64        2467.87       -2700.76        3214.78         538.24
          15.03         124.21        2246.19       -1987.88        3152.43         478.69
         333.02         158.25        1799.89       -2023.72        3282.52         612.72
         655.77         249.52          71.39        -366.96        2940.22         159.80
         191.80         184.83        1274.27       -1493.36        3392.43         704.92
         387.73         264.65          72.26        -178.55        3003.87         284.71
         711.81         232.62         931.15       -1351.00        3025.38         318.74
         425.00          33.04         972.06        -863.83        2983.70         208.12
         407.74          66.99        1039.71       -1041.35        3076.86         372.73
         184.87           8.10         855.34        -488.50        2990.14         329.95
          86.46         136.30         315.46        -572.35        3584.08         834.82
         884.97         425.83        1896.67       -2776.74        3119.24         437.31
         177.78          26.62         126.15         158.98        3060.42         385.80
         221.57          17.98         148.69         152.18        3009.56         344.67
         908.48          55.58        1842.83       -2240.62        2983.69         230.06
         445.53          17.20        1771.76       -1791.80        3107.27         430.41
         350.66          22.07         272.47        -495.31        3400.06         742.64
         395.05         219.20          26.83        -926.63        3835.52        1009.91
         252.31         154.45        3621.76       -3561.64        3083.07         415.24
         240.02           9.76         777.41        -496.32        3019.07         338.19
         100.15          46.47         128.88         266.69        3007.76         286.39
         101.39         122.50        3211.55       -3232.04        3346.56         699.04
         117.07          76.48        2032.88       -1785.73        3109.25         444.13
         390.72          28.51         228.84        -254.26        3156.16         509.62
         595.43         119.19        3901.68       -4097.73        3031.37         327.32
         932.32         230.66         283.12       -1083.67        3187.52         557.08
         191.36          88.61        2580.44       -2442.34        3131.88         476.78
         143.63          34.46        2591.86       -2243.67        3023.67         362.70
         646.26          21.92        1244.62       -1356.60        2993.76         238.96
         178.07          35.48        1521.11       -1169.41        2984.72         226.21
         323.76         586.95        1695.48       -2188.30        3132.06         479.94
          83.11         121.56         892.04        -751.79        3205.03         556.94
         396.01           8.55         398.51        -264.37        3011.28         280.50
          78.15          57.00         192.19          88.03        3134.60         477.76
         168.73          41.77        3753.43       -3533.78        3119.79         469.49
         459.66         114.47         620.75        -640.34        2995.42         288.07
         131.83         224.69         182.58        -131.84        3142.70         517.24
         274.90         128.19         785.84       -1296.20        3657.21         898.34
         247.63         143.62         313.25        -137.72        2983.18         265.19
         320.39          84.92        1597.29       -1497.26        3044.63         391.90
         346.00          26.52        1758.06       -2139.31        3558.69         836.92
         298.92         233.62        2278.35       -2360.58        3099.65         439.13
         104.11         202.26         764.70        -922.83        3401.73         700.46
         703.74         568.98        1970.87       -2809.69        3116.06         446.30
         254.29         136.88        4186.04       -4105.90        3078.66         354.23
         510.11          27.19         334.65        -242.04        2920.04         105.61
         128.46         133.71          18.99         311.91        2956.88         224.16
         166.70          46.37          41.26         256.94        3038.67         377.45
         234.56          20.87         321.33       -1096.96        4070.16        1112.07
         183.90          44.46          80.75         223.93        3016.93         314.84
         184.35         162.11         576.61        -893.00        3519.87         790.12
         116.74          37.21        1063.92        -730.10        3062.18         405.93
          29.81           3.72        1407.24       -1164.52        3273.73         605.91
         237.55         183.39        1848.60       -1810.40        3090.83         390.39
         107.26         184.03        3552.65       -3353.56        3059.57         387.88
         370.17         165.68         751.27        -790.57        3053.42         316.50
         595.42          99.56         336.65        -543.97        3062.30         375.58
         303.17         158.99         404.16        -579.79        3263.44         579.65
         158.10         342.31         346.71        -479.99        3182.82         517.75
         811.85          18.17        2505.82       -2847.21        3061.33         353.65
         354.05          28.58        3612.24       -3713.91        3268.98         591.99
         587.36           5.30        1007.06       -1165.80        3116.04         489.20
         104.13         338.84        1123.78       -1164.07        3147.26         484.25
        1121.97         246.65        1713.76       -2599.34        3066.89         343.43
         639.85          38.67         957.60       -1493.72        3407.57         725.85
         425.44         110.13         106.44        -219.40        3127.33         492.26
         509.62          85.25          10.11        -577.00        3521.98         794.62
         233.57         686.32        2008.81       -2358.69        2979.96         331.40
         163.91         385.07        2341.01       -2639.96        3299.93         631.07
          97.44         238.25          13.46        -322.00        3522.81         778.14
         628.10         201.49         273.60        -700.15        3146.94         467.02
         268.06         160.15         162.59        -521.24        3480.40         735.04
         911.57         303.93        1269.20       -2135.68        3200.95         539.25
         189.38          14.12         783.88        -851.49        3414.06         748.98
         260.62         150.19         355.27        -627.12        3410.98         724.66
         740.30         160.14        1832.23       -2372.90        3190.17         565.64
        1567.16         302.67        1157.19       -2634.39        3157.32         505.47
          67.53         345.50          55.57         106.80        2974.54         251.81
         323.33         211.43        1124.23       -1325.17        3216.14         567.89
         494.11         402.05         861.93       -2041.00        3832.85         978.46
          41.33         542.39        1346.16       -2133.70        3753.78         932.94
         525.71          53.90         435.50        -612.51        3147.37         446.32
         327.49         105.96        3881.54       -3777.28        3012.26         292.48
         369.46           8.57         686.85        -426.03        2911.13         160.82
         819.60          95.60         667.15       -1270.20        3237.82         567.75
          22.43          98.03         997.97        -553.96        2985.48         296.95
          24.62         172.95        1720.90       -1392.29        3023.80         327.15
         916.64         152.42         473.54       -1085.10        3092.48         401.64
         773.44         452.82         666.17       -1535.46        3192.96         567.66
          47.52          24.08         689.16        -412.40        3201.60         555.66
          36.62         166.23         689.41        -398.46        3056.14         365.04
         148.16          50.40         287.90        -193.63        3257.14         628.30
        1828.87         383.61         631.41       -3465.25        4171.31        1137.14
           8.73         223.59        2180.02       -1828.60        2966.24         204.61
         301.43          96.27        1530.76       -1404.40        3025.89         309.60
         639.86           7.95         623.22       -1086.43        3365.35         684.01
         686.56          59.24          82.76        -396.79        3118.19         452.64
         695.61         197.77        3668.11       -4886.11        3874.57        1015.41
         362.57         136.67         693.18        -957.91        3315.44         626.85
          30.46         136.10        2060.93       -2134.15        3456.64         720.67
          97.08         556.45        3763.16       -3852.95        2986.23         280.73
          57.44         253.50         667.48        -727.51        3299.05         657.39
         252.63         119.96        4326.23       -4188.74        3039.90         376.22
         500.63         387.24         497.98       -1145.13        3309.25         639.85
          84.96          49.45         186.94         275.93        2952.68         295.64
         219.32          90.06        2191.70       -1955.05        3003.95         295.28
          94.89         140.69         929.79        -578.80        2963.38         242.36
         574.34          28.11         811.64       -1167.55        3303.43         626.93
         370.63         136.80        1416.58       -2036.92        3662.86         890.56
          28.53          45.38        1008.82        -533.04        3000.25         257.58
         112.82         271.93        1829.59       -1821.92        3157.54         485.52
         444.81         183.50          94.06        -322.11        3149.70         481.85
         726.57          35.36        1066.06       -1460.72        3182.70         509.34
         453.85          53.15          41.29          44.55        2957.14         215.10
          13.48         300.30        2108.15       -2562.26        3690.28         890.00
          16.72          98.88        1653.60       -1274.20        3054.95         373.44
        1703.28          98.29        2402.76       -3596.32        2941.93         176.41
         307.93          32.92        5091.48       -4823.08        2940.69         146.04
         386.60          49.08        2677.06       -2726.12        3163.33         486.17
          20.89          32.95        2995.46       -3181.96        3682.62         896.96
         618.52         367.17        2028.37       -2483.74        3019.64         224.09
         364.20         283.77        2204.19       -2462.15        3159.95         528.01
        1467.36          29.45        1948.56       -2858.85        2963.44         187.62
         293.03         346.72        1147.73       -1331.89        3094.38         406.17
         119.63          83.20         622.55        -608.02        3332.60         671.11
         158.36         402.01         328.28        -500.34        3161.64         493.95
         193.79         180.09         293.09        -141.46        3024.46         367.85
         216.50          52.77        2556.33       -2282.94        3007.31         258.76
         702.98          43.74        1349.37       -1481.57        2935.44         161.05
         216.35         481.43        2216.12       -2789.26        3425.31         739.19
         103.76         119.03        2617.60       -2532.94        3242.53         590.08
         244.97         202.80        1686.17       -1552.45        2968.48         350.83
         503.72         204.59        1211.58       -1663.05        3293.11         635.83
         466.12          53.55         599.28        -620.06        3051.05         373.37
          37.07         157.59         375.35        -342.24        3322.19         669.67
         570.83           6.17        1162.38       -1792.22        3602.78         854.68
         294.83         128.86        1478.87       -1309.13        2956.54         248.68
           9.09          43.42        1636.83       -1250.51        3111.12         452.73
         260.72          39.68        4401.86       -4103.99        2951.69         143.97
         889.52          13.58        1315.96       -1603.16        2934.07         119.13
          63.78          95.80        3128.74       -2763.63        3025.29         305.52
         757.11         323.96          64.93        -637.61        3041.56         345.78
          94.86         177.02        1674.22       -1352.25        2956.13         208.22
         256.67          81.68        1794.58       -1998.07        3415.12         704.44
         575.90         269.97        2270.71       -2700.05        3133.45         446.04
         393.42           4.57        1300.49       -1088.69        2940.16          74.92
         724.37          19.05        3225.12       -3399.48        2980.88         244.95
         630.60          32.35         646.98       -1324.78        3564.82         826.86
          93.60         207.07        1227.84       -1115.98        3137.43         509.68
         653.22          56.49         724.81        -928.42        3043.86         353.95
          34.76         516.65         844.07        -913.09        3067.58         397.32
         190.25         100.01         504.85        -186.55        2941.39         140.47
          75.17         213.08         450.06        -533.80        3345.44         674.94
         639.47         399.36          27.73        -689.75        3173.14         498.25
         471.42          23.29         794.79       -1478.29        3738.75         929.85
         118.49         246.02         758.73        -728.85        3155.56         476.21
         354.30          72.51        2084.79       -2911.69        3950.05        1028.68
         339.12          59.24         930.15       -1188.60        3410.04         715.12
         723.41         117.16          57.46        -505.72        3157.65         506.99
         274.88         147.00        2037.10       -1984.41        3075.39         402.80
         571.04          52.65        1641.48       -1671.20        2956.00         176.99
         742.93         142.97        1552.01       -2022.75        3134.79         469.38
         254.76          39.55         186.35          45.09        3024.19         278.30
         124.32         128.13        3817.13       -3498.02        2978.40         198.54
          10.64          33.25        1177.37       -1053.37        3382.07         704.95
         121.73          57.25        1074.76        -661.49        2957.70         224.69
         196.38          80.44        4179.95       -3863.12        2956.32         240.81
         245.19          94.39        2717.18       -2855.14        3348.35         647.78
        1475.47         354.85        1126.31       -2543.92        3137.27         477.36
         855.63          73.13        1520.19       -2141.18        3242.19         599.93
         648.24          33.16        2033.87       -2234.65        3069.34         378.82
         111.27         270.26        1734.65       -1520.99        2954.79         205.77
         194.06         145.48        3344.24       -3217.91        3084.07         422.82
         157.53         120.71         247.41         -54.13        3078.46         435.15
         724.46         221.05          21.08        -401.52        2984.86         279.66
         643.39         220.62        1347.69       -1796.35        3134.61         473.12
         525.21         151.03        1562.20       -1613.14        2924.66         120.69
         382.45         187.12         221.30        -230.54        2989.65         323.83
          83.61         394.64         830.48        -876.61        3117.83         457.15
          79.92         299.42         706.11        -927.68        3392.19         712.04
         530.98         128.10        1065.20       -1271.67        3097.35         413.75
         364.21          26.29        2096.52       -2266.76        3329.69         624.59
        2200.88          27.57         962.07       -2935.11        3294.54         632.56
         321.93         162.23        2884.53       -2897.71        3078.99         401.05
         193.43          62.98         907.58        -807.82        3193.78         513.26
         187.58         275.65        1458.56       -1452.78        3080.94         425.52
         926.10         261.50         412.64       -1230.27        3179.99         523.30
         569.32         386.61         203.77        -752.60        3142.85         489.26
         996.52          80.68        2571.25       -3137.46        3038.97         344.48
         374.80         441.04        2749.41       -3434.79        3419.51         717.22
         488.03          26.54         207.63        -486.02        3313.78         649.33
         343.59         234.51         220.80        -214.91        2965.97         235.98
         411.96          26.57         304.39        -124.41        2931.46         159.80
         369.13         135.84        4191.31       -4113.37        2967.06         285.78
         402.34          24.36        2339.40       -2205.71        2989.58         136.18
          50.92           8.19        1974.03       -2654.20        4171.01        1142.43
         192.26          64.55         146.61         -59.77        3206.31         580.70
         202.90          24.03        3853.89       -3899.09        3368.20         688.51
         672.15          97.45        1649.09       -2354.11        3485.38         764.07
          88.27         267.05        2092.53       -2271.92        3374.03         699.49
         583.38          37.40          43.74        -256.73        3142.16         461.24
         376.43          67.23         114.35        -307.44        3299.38         634.60
         239.64          23.67        2481.07       -2287.21        3092.77         416.36
          75.36          45.64         837.53        -350.92        2942.35         111.26
         199.52         179.34         498.68        -593.25        3265.66         610.76
         376.31         183.92        1187.30       -1235.89        3038.33         329.15
         604.17          70.25         430.21        -940.47        3385.79         678.33
         135.20          67.30        1606.57       -1324.63        3065.52         358.86
          93.29         266.12        1851.17       -1812.06        3151.44         540.06
         337.28          39.30        2029.52       -1805.44        2949.29         166.69
          39.33         271.13        3322.45       -3097.25        3014.33         244.84
         657.20         353.83         781.74       -1445.59        3202.79         545.09
          74.92         102.30        1129.19        -854.07        3097.61         462.54
         320.45         235.91        1515.83       -1620.97        3098.74         406.16
         415.50          15.09         167.74          -9.94        2961.56         223.55
         519.39          87.67         411.44        -511.99        3043.44         360.28
         177.14         155.92        4715.39       -4515.86        3017.39         327.98
         288.80         136.52        1073.96       -2024.52        4075.20        1117.63
         361.15         175.95        2160.22       -2210.83        3063.46         387.18
         121.49          33.09        2328.82       -2032.88        3099.44         394.51
         148.64         100.60        1185.64       -1070.65        3185.73         529.10
          38.74          80.16        2434.24       -2088.02        3084.86         409.58
         266.02          64.48          34.30          70.89        3114.27         456.51
         148.43          67.19        1011.82        -930.57        3253.10         584.89
          44.03          44.83        3628.58       -3473.08        3305.59         658.74
         972.51           6.94         803.02       -1339.30        3106.79         402.84
         862.96         522.83        1121.85       -2127.88        3170.20         495.98
         314.42         213.06        1321.66       -1304.26        3005.07         365.70
         610.50          38.83           0.15         -39.49        2939.97         273.07
         527.29         249.85        3910.75       -4493.82        3355.89         690.08
         409.71         133.24        1135.89       -1160.54        3031.66         296.26
         951.32          64.84        1973.95       -3367.50        3927.34        1042.75
         313.29         421.25         483.92        -788.44        3119.94         454.87
         153.98         150.56         380.27        -196.27        3061.43         436.54
         658.30         259.59        5734.30       -6059.74        2957.51         275.09
         942.35          93.88        1033.64       -1464.48        2944.57         270.96
         788.35         349.79         634.89       -1503.95        3280.89         615.41
         481.10          37.93         458.76        -735.81        3307.98         661.14
          48.52         400.75        5174.03       -5091.19        3017.83         309.96
         104.93         459.15        3119.71       -3318.31        3184.49         532.38
         169.02         158.04        2595.58       -2717.96        3345.27         678.29
        1019.57         118.66         222.15        -883.46        3073.06         454.70
         741.16         173.76        1983.90       -2628.17        3279.29         622.43
         351.69         106.24        1471.05       -1361.62        2982.61         285.35
         462.54         216.25        2927.29       -3365.95        3309.82         625.46
          59.41          19.51        1938.18       -1427.45        2960.29         255.11
         931.83         146.30        1265.11       -2090.05        3296.76         637.34
         473.61         174.46        1108.94       -1134.46        2927.39         122.26
         203.33         152.57        4007.06       -3845.49        3032.49         359.05
         462.69          91.50        4289.91       -5102.24        3808.09         998.16
         204.01          55.25        2549.56       -2276.55        3017.72         285.59
         240.31         150.70         150.51        -350.08        3358.51         678.56
         145.92          67.83        3150.42       -2848.92        3034.69         328.92
          34.44          58.74         459.11        -107.38        3105.06         435.46
         434.26         102.00        1263.11       -1549.46        3300.06         646.92
         168.67         149.42        2597.32       -2342.44        2976.98         264.92
          80.44         214.21        2436.26       -2229.24        3048.30         342.59
         784.72         273.73         660.76       -1293.98        3124.73         459.80
         298.21          55.12         526.80        -679.66        3349.50         680.71
         437.58          82.99         423.56        -362.68        2968.53         250.77
         111.68           2.92         442.19         -88.91        3082.08         412.25
         785.49         492.23         544.72       -1344.66        3072.17         416.64
         901.24         158.48         240.42        -771.07        3020.89         334.57
          74.22         252.96        1078.75        -969.67        3113.71         429.92
         254.70         428.47         661.43       -1350.02        3555.39         829.28
         398.17          75.48         320.78        -222.18        2977.70         263.02
         101.04           2.63          87.60         103.95        3254.74         635.97
         280.03         286.86        1673.39       -1644.71        2954.38         123.82
         387.99         132.32        1076.55       -1322.76        3275.87         594.20
         569.88         428.75        2837.81       -4114.59        3828.11         999.52
         363.18         220.91         888.30       -1042.46        3120.04         467.46
        1066.53         359.29        2381.95       -3424.37        3166.56         507.26
         265.53          48.80        3269.84       -3059.81        3025.60         363.10
         260.77          56.42        1002.33        -920.65        3151.09         531.07
         557.07         189.08        2082.75       -2486.04        3207.10         543.66
         512.43          55.23         268.83        -717.72        3431.19         727.90
           4.29         205.30        3967.16       -3604.51        2977.71         275.93
         214.27          41.27         271.50         -16.44        3039.37         344.49
         694.23           5.59        2459.06       -2975.29        3366.36         674.26
         200.73           7.49        1835.56       -1523.15        3029.34         350.67
         391.09          70.58        2191.26       -2170.90        3067.92         409.55
          26.65          42.99        1263.83        -834.68        3051.17         366.73
         443.80         401.83         119.27        -515.43        3100.48         437.18
         518.70         121.74         582.98        -832.06        3158.60         510.58
         229.87         475.40         405.31        -653.96        3093.35         432.87
          68.87          73.06        1414.25       -1362.27        3356.03         684.47
          78.03         106.47         651.67        -918.62        3632.42         884.38
         220.56         398.13         422.35       -1036.52        3545.44         814.36
         347.32         454.21        1485.28       -1659.15        2922.33         156.42
          64.01         114.36        4173.96       -3842.04        3039.66         392.46
         533.82         175.60        1323.37       -1511.04        3028.22         349.71
        1003.24         270.20        2297.84       -3201.83        3180.51         534.72
         723.20         397.94         935.85       -1551.03        3044.01         341.86
         382.37         323.10         421.03        -596.74        3020.20         290.52
        1120.62          72.30        3664.13       -4634.31        3327.20         656.88
         206.25          14.17         549.63        -388.65        3168.54         522.79
         398.43          22.92        1294.90       -1187.70        3021.41         352.03
         234.08          50.12        1439.42       -1231.94        3058.27         367.96
          96.70         272.28         110.77        -821.85        3892.06        1017.07
         521.21          70.40        1347.46       -1417.37        3028.27         307.20
         350.36         193.51        3094.34       -3161.91        3073.67         375.74
          22.77         399.52         718.39        -724.09        3133.36         489.80
          16.81         109.09         811.84        -447.71        3059.93         424.52
         216.51         458.97         268.59        -498.83        3104.73         447.32
         678.08         180.30         208.41        -539.81        3022.98         329.50
         140.85          57.69        1090.53        -793.28        3054.18         371.34
         864.30         203.49         860.14       -1591.52        3213.54         536.85
          38.22         110.34        1815.62       -1967.34        3553.10         817.90
         116.03          82.45         248.47          74.19        3028.83         351.07
         492.96          55.76        4548.10       -4469.28        2922.42          81.99
         172.62          74.73         834.06        -600.56        3069.12         439.05
         480.54         202.78         228.15        -480.42        3118.91         471.48
         134.56          23.11        3044.29       -2606.33        2954.34         235.36
         773.58          77.98          49.61        -542.21        3190.99         506.65
          42.08         101.41        2201.46       -2254.46        3459.46         772.83
          70.76           8.38         829.25        -373.68        3015.26         356.05
          25.04           2.96        1831.96       -1234.15        2924.16         133.26
          87.45         369.23         896.32       -1039.60        3236.56         606.40
         337.64         110.42          32.00          45.79        3024.13         293.88
         160.28          15.33        1115.67        -891.73        3150.42         502.45
          69.71         116.61        3775.53       -3394.06        2982.17         229.71
         294.11          15.92         955.83        -882.75        3166.85         490.05
          69.28         262.26        1586.98       -1679.12        3310.56         623.07
         182.45          50.79        2550.98       -2160.38        2926.14          54.06
         285.93         498.86        3368.39       -3731.65        3128.44         482.46
         386.63          76.08        1530.21       -2188.12        3745.14         941.78
         766.26         167.93         612.31       -1078.81        3082.25         410.63
          81.72          68.61        1587.03       -1273.36        3085.97         414.69
        1027.01         322.86        2009.04       -2899.58        3090.64         402.36
         565.13         155.20        1883.10       -2828.65        3775.17         949.69
         638.47         115.85         480.55       -2221.44        4536.54        1299.04
         454.06         795.28         790.47       -1623.68        3133.81         490.77
         920.34         118.06        1062.26       -1928.90        3378.19         688.88
         127.41          27.39        1924.06       -1493.13        2964.23         228.73
         729.10          35.78        4217.25       -4688.27        3256.09         581.41
         596.98          15.68        1553.96       -1694.60        3077.93         408.66
          64.22          54.70          70.06         389.90        2971.08         220.92
          39.53          56.97        4624.00       -4157.30        2986.78         288.98
         166.50         245.39        1299.47       -1246.45        3085.04         413.32
         207.11          45.43         529.26        -643.62        3411.78         744.38
         199.79          18.46        1399.97       -1274.51        3206.24         574.45
         613.78          17.43         301.03        -417.58        3035.29         378.55
         224.79          10.25        1149.56       -1502.24        3667.59         900.03
          81.27         161.18        2181.64       -1877.21        3003.07         258.03
         311.21         416.00        3209.30       -3496.13        3109.59         462.06
         227.63         140.91        1269.81       -1091.45        3003.07         341.51
         302.54         161.34         532.44        -555.23        3108.88         471.85
          92.00         194.59        3715.88       -3493.44        3040.91         360.29
         167.36         210.61          28.61         165.12        2978.27         262.21
          97.30         293.69         758.63        -729.44        3129.76         508.68
         541.08          83.61         376.26        -613.59        3162.62         521.38
         305.14          15.75        1335.73       -1247.40        3140.74         475.04
         266.81         191.70        1538.26       -1799.44        3352.63         680.51
         530.89         225.83        3063.07       -3676.55        3406.71         725.08
         207.21         117.88         660.10        -411.98        2976.76         290.06
         328.79         208.45        3412.19       -3691.46        3291.96         622.49
         194.85          12.71         334.96        -147.61        3155.04         436.33
        1389.78          32.35        1024.64       -1822.85        2926.05         149.34
         536.21          92.74        1316.73       -1350.31        2954.58         171.39
         813.09          17.80        1790.51       -2165.52        3094.08         437.37
          89.72         106.66        1017.44        -732.56        3068.69         382.64
          12.44          37.13        2882.94       -2348.75        2966.21         180.11
         216.02          82.15        1723.58       -1671.13        3199.35         540.06
         435.72           3.36         867.81        -744.69        2987.78         325.74
         137.60          36.92         938.64       -1229.53        3666.32         897.48
         732.85         326.62         149.63       -1033.79        3374.64         691.23
         374.63         104.10         414.76        -749.45        3405.92         723.12
          45.37        1008.31        1073.84       -1673.91        3096.36         480.93
         371.97         731.75         650.06       -1263.42        3059.61         442.70
         327.16         188.58        1885.69       -1879.78        3028.32         340.42
         443.65          15.91        1672.05       -1514.24        2932.59         159.40
         896.68           2.65        3129.28       -3590.06        3111.41         483.00
        1263.48          10.31         345.96       -1033.68        2963.90         185.88
         735.12         153.79        1762.13       -2587.16        3486.10         752.30
         179.68          36.17        3312.48       -3045.69        3067.34         362.67
          29.29         302.05        1009.67        -811.45        3020.42         317.50
         385.50          22.44        1385.30       -1425.70        3182.41         507.69
         150.16          20.91         514.98        -295.87        3159.79         494.30
         289.14          68.57         915.88       -1241.38        3517.76         788.80
         352.67          89.59        1146.45        -972.92        2934.17         183.68
         295.94         108.24         245.88        -192.85        3092.77         413.11
         289.66         399.41         572.32        -965.11        3253.68         582.19
         326.42         160.90         126.33        -292.46        3228.77         569.12
         157.78          23.26        3720.74       -3835.33        3483.52         768.57
          50.87         281.06         482.17        -328.90        3064.78         378.26
         135.75          83.81         170.41         182.69        2977.30         234.97
         371.89          41.86        1420.57       -1258.56        2974.21         256.18
         601.69          61.53         126.68        -534.80        3294.87         630.98
         151.14         416.71        1931.25       -1965.27        3016.13         315.02
         262.25          82.07        3001.35       -2876.25        3080.52         432.39
         271.26         313.58        2740.72       -3240.40        3464.80         759.32
         113.54         471.19        1395.81       -1521.88        3091.28         418.24
         362.11         188.46        3221.82       -3540.51        3318.10         651.74
         628.94          42.13        1396.64       -1596.93        3079.19         366.28
         482.55         457.23        3578.62       -4301.37        3332.92         684.75
          62.18          37.89          31.03         147.79        3271.07         604.44
         353.69         294.68        1043.55       -1198.00        3056.04         372.31
         304.99         167.29         120.52         -65.25        3022.40         330.49
         884.60          62.12        1579.10       -2297.16        3321.27         648.94
         810.78         369.02        1796.81       -2693.99        3267.36         571.86
          99.33          13.56         796.53        -465.41        3105.96         457.25
         277.39         212.40         347.99        -553.47        3265.67         588.00
         179.26         177.31          14.57          81.87        3096.94         429.40
         125.47         329.52        1859.69       -1868.14        3103.42         450.59
         149.35         645.00        3166.53       -3471.86        3060.92         340.88
         460.14         493.30         958.03       -1376.46        3014.95         319.40
         320.59          97.84         585.68        -701.83        3247.66         600.67
         615.29         267.74        1475.99       -1959.16        3150.09         493.54
         550.31          19.00        3083.51       -3036.93        2934.07         158.37
         625.70          60.45        3656.03       -4065.36        3273.14         605.60
         170.31           4.62         766.31        -681.58        3290.30         629.53
         244.16          52.03        1164.79        -933.53        3022.54         278.21
         539.91         235.39         894.48       -1102.05        2982.23         217.54
          50.02          42.85        1964.31       -1428.22        2921.00         164.17
         360.37          32.22         833.71        -735.54        3059.21         356.08
          99.03          81.18         522.32        -230.75        3078.18         394.19
         280.63         141.72        1507.92       -1936.93        3556.61         804.37
         278.73          43.51         243.36        -123.72        3108.09         403.92
         929.81          90.16        3069.07       -3747.17        3208.10         572.22
         323.10          97.05         281.27        -207.57        3056.12         392.15
        1436.43         344.43        4251.07       -5807.75        3325.76         641.84
         252.92         254.49        2986.54       -3016.03        3072.04         418.72
          82.64          23.33        4100.93       -3611.12        2954.17         230.77
         178.67         163.34         635.14        -500.26        3073.06         385.42
         537.93         377.07        1050.17       -1516.78        3101.58         399.15
        1404.30         456.86        2519.90       -3902.96        3071.86         386.84
         443.70         144.74         574.85        -716.15        3102.83         443.82
         359.25          31.47         727.44        -738.74        3170.54         488.23
         223.64          73.60        1515.25       -1440.30        3177.77         525.13
         552.38         609.83        2413.67       -3293.62        3267.69         605.57
         398.05          28.52        3001.64       -3204.55        3326.31         638.15
         124.72          15.66        3381.45       -2994.47        3022.60         328.21
         297.60          74.23        1819.55       -1649.20        3007.78         356.14
         316.91         157.24        1317.69       -1457.15        3215.29         537.78
         193.08         402.32         160.09        -852.45        3646.93         890.76
          45.42         228.98         695.38        -456.52        3036.71         245.19
         491.03          10.14        1797.19       -1729.75        2981.36         267.42
         124.33         394.95         942.72       -1082.40        3170.36         534.88
         203.92         254.22        2435.11       -2268.87        2925.58         149.06
         142.67          18.80         115.01         189.27        3084.19         415.31
         466.28         143.63         862.95       -1504.43        3581.52         824.01
          40.76          39.85         203.43          94.23        3171.68         486.55
         374.86         504.53        1837.53       -2360.22        3193.26         553.10
         732.70         345.21        2771.88       -3295.10        2995.24         262.86
         777.18          14.46         987.01       -1177.70        2949.01         186.44
         234.67          10.47        2320.26       -1939.73        2924.30         121.75
         597.21          79.38        1801.38       -1926.56        2998.56         214.98
          93.23          45.20        1094.64        -960.62        3277.50         626.12
         255.21          41.51         591.48        -441.04        3102.81         459.00
         194.21          54.66        1563.85       -1221.58        2958.83         180.93
          90.93          34.01          80.03         325.70        3019.28         425.34
         997.16          15.40         437.58        -909.06        3008.87         320.23
         230.93          44.30        4456.92       -4211.23        3029.02         364.39
         110.81         167.00        1430.02       -1234.07        3076.21         395.51
         306.95         248.72        1048.01       -1209.30        3155.59         487.44
         393.80         155.05         591.34        -651.79        3061.57         374.19
         426.93         121.02        3073.39       -3404.29        3332.90         665.78
          57.96         182.60        1619.59       -1466.11        3155.95         492.11
         424.33          15.42        1935.16       -1805.08        2980.15         286.53
         314.20           6.13         592.59        -641.99        3279.02         636.86
          96.31         280.02        1230.52       -1495.10        3438.21         748.77
         343.09          74.99           6.26        -270.03        3395.63         702.29
         143.11         214.59        2645.26       -3592.94        4139.94        1129.30
         288.00         174.02        1893.49       -2206.00        3400.45         703.75
         177.98         404.55        1870.31       -1858.42        2955.54         287.50
         287.88          49.75         725.48        -702.59        3189.44         545.07
         207.08          13.76        3049.08       -2704.74        2984.76         229.81
         306.04         169.15        1822.39       -1831.95        3084.33         413.65
         242.63           3.21        2483.33       -2269.49        3090.29         399.00
         133.81          72.58         264.45         -82.48        3161.60         510.83
         377.87         283.99        2928.42       -3504.03        3463.70         761.80
         241.82          21.29        1336.64        -976.58        2926.79          45.74
         149.37          98.15         104.53         269.38        2928.52         173.02
         605.31         236.96        1552.41       -2456.91        3612.18         865.13
          81.97          33.10         349.42        -204.88        3290.35         630.78
         270.85          31.90        1608.90       -1335.78        2974.10         239.87
          99.11         512.85        1225.90       -1291.23        3003.34         339.98
         568.54          87.70        1197.64       -1250.35        2946.42         225.32
         241.75         344.85         443.42        -477.05        2996.99         219.99
         304.36         116.00        2460.55       -3025.67        3694.73         898.99
         542.34          33.11         245.13        -636.77        3366.16         696.29
         459.53         290.83        1363.44       -2016.81        3452.96         749.54
           4.79         117.78        1360.91        -887.70        2954.15         208.13
         444.63          33.86        1650.06       -1627.65        3049.06         376.26
        1854.19          98.62          64.60       -1903.83        3436.40         732.05
         567.18         162.59        1297.68       -1923.41        3445.92         738.55
         800.34         168.59        1541.72       -2070.51        3109.82         416.80
         466.14         280.88        2513.46       -2643.47        2932.95         205.18
        1166.46          53.89         117.88        -845.89        3057.63         388.53
         430.23         175.10        1926.18       -1958.65        2977.09         260.21
         238.10          53.08         118.16          58.93        3081.69         415.22
         839.36         204.00         993.70       -1454.55        2967.44         260.65
          29.53         154.66         644.38        -359.21        3080.61         430.53
         196.54           2.56         435.56        -937.35        3852.64        1001.79
          61.11          97.91        2759.60       -2687.70        3319.05         648.18
          41.25         116.88        3803.50       -3398.19        2986.52         242.68
         309.93         171.57         460.78        -784.58        3392.27         671.11
          23.38         108.74        3012.87       -2556.77        2961.75         235.20
         351.69          16.38         863.24        -779.66        3098.33         441.34
          80.72           9.80        3420.74       -3460.25        3498.94         774.77
         597.18          70.67         121.87        -270.36        3030.62         326.96
         724.66         302.62        1355.50       -1933.79        3100.98         465.16
         783.07          72.29          77.12        -593.67        3211.15         555.55
         199.02         164.78         640.79       -1630.09        4175.46        1162.46
         262.47         244.67        2824.04       -2832.97        3051.77         422.95
         113.92         185.19         926.12        -883.97        3208.71         552.79
         327.48         236.41        3263.50       -3525.92        3248.50         604.77
         720.94         325.46        2269.24       -2793.61        3027.94         330.80
         693.34          19.47        2650.52       -2817.44        3004.06         337.56
         270.73         422.32        2238.68       -2787.89        3406.12         711.34
         467.83         382.12         410.91        -763.48        3052.60         333.55
         466.43         274.11        2161.54       -3172.21        3820.09         978.84
         854.60         253.36        3368.73       -3837.24        2910.49         164.94
         157.44         358.57        1731.28       -1902.62        3205.29         556.87
         120.69         180.92         182.91          30.31        3035.12         342.13
         116.43          71.86         871.80        -558.41        3048.28         347.69
