 # HCl ZPE restriction,  Energy (cm-1), speed (m/s)
 #Water ZPE (DMC): 4713.0629051, HWW ZPE (DMC): 12528.93462455
 #E_given = DMC ZPE + 3550 =21233.1103893624.
 #Dvib = Evib - ZPE
 #D0 = E_given - Erot(W) - Erot(HWW) - Evib(W) + Evib(HWW) - E_COM,E_COM=0
 
       #Erot(W)     #Erot(HWW)       #Dvib(W)     #Dvib(HWW)             D0         #Speed
          74.59          12.77         757.62        -576.16        3281.13         601.06
         950.03         219.62        1117.32       -2015.11        3278.09         597.62
         535.73         250.95        1493.51       -2207.08        3476.85         770.13
         257.98         132.36         182.41          -1.15        2978.37         265.76
         283.31          97.04         120.01        -320.04        3369.66         691.26
         159.29         192.33        1592.39       -1786.49        3392.45         719.64
         334.71         153.21         228.68        -393.99        3227.36         582.72
         189.69           1.17        1922.93       -1654.13        3090.29         436.36
          76.66          44.98         798.58        -601.85        3231.58         564.75
         522.75         112.53        4009.37       -4239.77        3145.07         483.66
         638.54          77.33        1278.30       -1583.96        3139.76         479.58
          50.86         101.53         216.62          53.25        3127.71         444.42
         138.55         120.70        1206.99       -1007.81        3091.52         447.50
         246.58         109.81        2392.61       -2271.71        3072.67         429.14
         137.93          78.71        2103.20       -1903.85        3133.95         471.06
          33.43          30.81         471.97        -364.85        3378.60         672.58
          77.61          45.18        1930.41       -1864.08        3360.83         699.71
          81.63          11.05         311.56        -272.01        3417.74         702.92
         236.70          15.45         330.25         -70.44        3038.01         343.74
         324.93          42.79         621.58        -548.51        3109.16         451.21
         917.88           7.36         982.96       -1428.64        3070.39         404.13
         440.02         567.16         899.57       -1527.58        3170.78         530.01
         255.38         595.28         434.48        -826.27        3091.09         435.07
         470.41          55.08         388.09        -522.02        3158.39         541.30
          31.66          40.67         156.71         296.10        3024.84         312.81
         270.25         114.12        2289.08       -2321.54        3198.04         512.14
         279.19          82.40        2305.00       -2463.55        3346.91         676.73
         318.30           1.36        2167.78       -2023.02        3085.55         392.91
         297.38          30.43        2167.85       -1861.43        2915.75         190.28
          98.27          16.27         447.53        -402.62        3390.52         718.41
         126.11         348.74        3092.87       -4144.46        4126.67        1114.45
         526.09         151.13         448.15        -571.95        2996.53         268.27
         370.86          66.69          10.98         147.51        2953.91         226.41
         280.26          62.90        2215.54       -2237.27        3228.52         558.87
         316.92         129.11         807.98        -824.71        3120.66         478.53
         339.51          62.14         678.24       -1006.02        3476.10         756.72
         815.22          20.26          29.77       -1467.66        4152.35        1138.41
         323.10          68.97         243.50        -238.17        3152.56         472.04
         245.33         415.83         736.32        -995.10        3147.58         454.61
         794.05           8.83        3670.17       -3940.38        3017.31         320.87
         383.95         282.65        1592.03       -2234.21        3525.55         771.76
         293.39         123.60        3932.33       -3912.64        3113.29         434.66
          28.18         204.10        1426.51       -1348.00        3239.15         590.01
          14.65         184.11        2958.68       -2682.36        3074.88         412.66
          84.04         136.88         758.75        -502.59        3072.89         403.48
         949.71          30.94        2932.38       -3494.05        3130.99         480.17
         416.73          88.19         193.70        -255.82        3107.16         418.05
         207.09          15.02         203.25         141.57        2983.05         288.43
          19.75          26.92         788.53        -313.52        3028.27         342.36
         209.73          10.46         161.52          82.23        3086.01         354.16
         182.42         201.10         902.13       -1198.10        3462.40         764.79
         257.90         322.25        1425.65       -1737.08        3281.23         605.75
         129.08          23.51        1818.30       -1436.54        3015.63         348.22
         100.62           9.76        2298.72       -1906.72        3047.59         341.83
         326.25          61.25         266.22        -218.50        3114.74         446.76
         509.04         119.39        3506.71       -3601.19        3016.00         318.90
        1203.37         215.30         454.62       -1464.83        3141.51         487.51
         176.36           4.55        3143.71       -2869.85        3095.17         454.18
         457.12          17.76         531.61        -605.86        3149.34         508.19
         455.57         151.44        4467.67       -4549.30        3024.58         343.23
         877.78          53.74        2235.98       -2591.03        2973.51         209.97
         455.62          40.55        1795.56       -1811.69        3069.91         396.22
         282.05         116.66        1373.69       -1347.24        3124.80         436.61
         712.09          66.65        2334.27       -2856.66        3293.60         637.22
          55.47         788.50        2264.29       -3235.64        3677.32         903.78
         388.79          88.49         219.02        -355.92        3209.60         555.96
         149.42         171.56        1482.60       -1485.54        3231.91         558.41
          32.23         210.67         402.94        -338.69        3242.80         613.32
         141.76          40.87        2496.33       -3989.08        4860.07        1445.53
          98.72          32.33         685.09        -245.20        2979.01         260.52
         181.95         197.23         932.77        -956.56        3194.56         520.37
         252.16          76.66        1157.74        -909.18        2972.58         227.20
         530.68          71.15        1155.02       -1300.61        3093.71         441.22
         211.22         220.23          35.78        -409.84        3492.57         779.19
         166.76         111.86         475.41        -290.99        3086.91         436.46
         249.18          86.46         388.49        -477.54        3303.37         630.57
         262.32          90.30        1379.45       -1267.82        3085.69         433.21
           7.94          45.32         895.53        -429.32        3030.49         297.36
         189.68           9.28        2948.79       -2588.84        2991.04         342.33
         209.81         140.10         333.18        -119.76        2986.63         289.50
         152.12         403.25         166.06        -565.00        3393.51         711.62
         210.96         224.33        2790.04       -2853.81        3178.43         530.84
         149.25          34.07         328.97        -168.53        3206.21         524.53
         208.67          28.75        1425.79       -1478.36        3365.12         686.80
         380.26         141.39         237.60        -456.15        3246.86         609.77
         261.11          87.21        2112.75       -1954.30        3043.18         346.70
          20.23          52.19         700.93        -401.37        3177.98         556.90
         234.79           0.53         124.05         165.16        3025.43         297.25
         273.16         138.74        1381.38       -1497.34        3254.03         598.13
         891.95          20.15         696.82       -1050.45        2991.50         168.15
         732.46          48.63        1161.02       -1559.29        3167.14         504.07
          40.04          28.84         257.02          25.23        3198.82         533.72
         101.55         103.31        1195.19       -1197.92        3347.84         664.88
         182.12          13.98          61.72          54.96        3237.19         562.93
         411.57         134.77        1926.21       -1895.62        2973.03         236.08
         475.04         909.30         791.33       -2327.36        3701.66         915.40
         998.83          75.22        1115.87       -1574.83        2934.87         170.49
         290.81           5.10         265.18        -333.40        3322.25         670.32
         761.47          55.69        3028.71       -3365.48        3069.56         362.69
         235.39         267.42         912.73        -991.28        3125.70         448.20
          89.15         654.61        1497.58       -2020.03        3328.64         658.25
         235.66         256.24         784.45        -852.44        3126.06         423.03
         136.67          63.74        1802.29       -1353.97        2901.25         151.73
          52.47         235.19         137.26         127.74        2997.28         269.65
          85.10          95.86         264.51        -329.80        3434.29         740.26
          86.29          32.73         392.81        -859.82        3897.93        1017.89
         365.01          22.86         905.62        -695.86        2952.33         189.79
          10.82         205.95        2078.10       -2087.83        3342.94         668.76
         491.85          59.15        1051.86       -1537.09        3484.20         774.23
         420.43         112.93        2989.16       -3255.29        3282.73         616.71
         287.36         160.95        1195.00       -1062.56        2969.22         227.00
         473.94          82.63        1965.40       -2526.00        3553.99         805.13
         384.00          68.48        1115.39       -1779.21        3761.30         944.17
         105.32         357.12         306.22        -401.54        3182.84         540.91
         397.59          95.88         384.48        -914.05        3586.05         847.41
        1030.71         564.64        1463.21       -2775.06        3266.46         621.85
         465.45          45.59        1398.30       -1447.16        3087.78         394.27
         615.30         101.44        6280.15       -6506.94        3060.00         336.15
         396.82         112.34        1464.02       -1423.41        3000.19         316.39
        1017.08          64.21         564.56       -1171.39        3075.51         315.55
         233.48         151.75         618.02        -480.96        3027.67         342.03
         241.50          14.53         393.17         -80.34        2981.09         251.88
         263.23          51.14        1355.61       -1245.86        3125.85         474.45
         546.57         154.44        1929.96       -2111.83        3030.80         344.33
         446.08         108.72        2092.04       -2486.35        3389.48         719.98
         317.34          58.50        2257.65       -2228.06        3144.51         479.63
         135.24         180.99        2547.64       -2606.73        3292.81         614.78
         418.33         208.25         510.20        -644.78        3057.98         369.89
          99.75         341.12          84.69         -22.43        3046.82         396.52
         368.15           3.16        1477.45       -1389.61        3090.78         410.16
         133.95         113.26        3672.35       -3575.16        3205.56         565.00
        1053.72         158.54         177.64       -1483.56        3643.62         877.58
          22.20         378.11          35.25        -116.45        3230.83         552.94
         514.84         104.25         882.45       -1550.13        3598.56         831.36
         158.59          78.57        2969.84       -2716.76        3059.70         367.44
        1010.40          86.14        3120.37       -3684.44        3017.51         325.27
          68.90          89.33        1500.33       -1355.02        3246.43         560.01
         393.94         524.35         281.28        -974.80        3325.20         676.96
         356.34          37.81         634.36        -671.71        3193.16         557.20
         403.61           4.22         379.45        -230.79        2993.47         242.66
         336.14         158.30        2335.87       -2241.30        2960.96         232.43
         199.57          52.41         110.48        -808.87        3996.36        1082.03
         200.40         126.81        1055.67       -1135.80        3302.89         589.21
         130.78         101.73         945.22        -878.11        3250.33         594.24
         146.06         107.87         313.96          16.67        2965.41         220.33
         180.23         435.18        1891.54       -2245.25        3288.28         637.40
        1181.88          56.10        3495.91       -4279.78        3095.85         429.99
          49.30          73.33         621.13        -122.87        2929.07         162.82
         301.94          29.39        1259.44       -1236.28        3195.49         495.56
         291.62         190.68          40.61        -201.98        3229.02         557.06
         372.42         473.68         668.64       -1192.87        3228.09         583.02
          98.35          14.80         913.43        -674.33        3197.73         495.65
         393.26         205.33         143.21        -143.06        2951.20         185.55
         621.06          15.14        1167.17       -1394.11        3140.70         467.51
         260.07          60.97         811.17        -719.05        3136.81         518.03
         477.38         272.04          38.21        -436.78        3199.11         547.79
         200.07          28.71        1986.03       -1655.60        2990.75         266.10
          90.32          80.26         433.51         -93.52        3039.39         420.66
         171.39          89.37         860.47        -642.22        3070.95         398.25
         190.41          98.38         210.02         -36.32        3087.47         411.99
         139.47         286.49         879.43        -833.97        3078.55         414.48
         186.39         144.49         811.86        -878.99        3286.23         636.57
          81.12          67.29        1860.36       -1627.38        3168.57         527.77
         495.90          73.73        2871.87       -3204.89        3313.36         666.35
         242.75          25.96        2247.83       -2038.99        3072.43         443.96
          52.45          55.29        2581.74       -2350.16        3210.64         561.88
         278.51         121.29        1129.41       -1174.23        3194.98         525.47
         119.67         137.53          37.11        -305.32        3560.99         821.07
         320.53         493.05        1448.26       -1799.27        3087.40         436.72
         226.23          74.45          42.06         106.30        3100.92         433.64
         293.91           7.05         558.52        -498.19        3188.66         505.05
          17.16          70.05        1511.36       -1378.36        3329.75         641.85
         145.38          76.27          80.19         -93.44        3341.56         638.48
         601.12          18.51        2199.85       -2197.02        2927.52         108.69
          72.40          29.60         425.75        -328.40        3350.61         685.76
         535.02           5.50        1341.56       -1752.82        3420.69         717.88
          72.07          72.18        4775.80       -4307.21        2937.13         217.48
         281.24          33.27         852.37       -1251.47        3634.56         851.90
        1244.10          23.64        3507.25       -4339.98        3114.94         452.83
         366.99          11.39        2510.96       -2331.92        2992.56         256.19
         480.69          47.86        3097.53       -4253.04        4176.91        1152.58
         318.30          83.65        1613.58       -1827.03        3361.49         658.15
         131.93           4.05        2552.93       -2139.88        3000.93         280.57
         423.45         373.03        1231.22       -1817.66        3339.92         679.60
         188.06          21.94        1196.52       -1069.73        3213.15         552.97
          65.56          57.21         158.54         198.97        3069.68         355.81
         212.30         420.68        2395.16       -2593.87        3115.68         457.90
         217.22         121.67        1111.67        -882.31        2981.72         249.04
         382.19         213.25        1314.00       -1516.53        3157.05         502.37
         180.61          33.48        1825.64       -1483.19        2993.41         284.79
         522.43         294.47         953.39       -1501.62        3281.30         622.76
         109.40          25.43          57.92         144.91        3212.32         555.55
         796.93          61.85        2291.30       -2824.14        3224.03         561.58
         153.58         401.99         849.20        -810.32        2955.51         221.91
         758.32          98.24        2288.32       -2726.66        3131.72         473.80
          71.15          23.10         664.16        -482.61        3274.16         583.06
         336.83         242.20        1446.48       -1648.56        3173.01         523.79
         506.97         183.03         487.38        -674.63        3047.20         390.22
         575.77         214.24         720.40       -1235.88        3275.42         630.71
         252.45           8.95        2600.10       -2331.96        3020.41         309.16
         193.95          29.82         733.11        -371.09        2964.16         215.61
         438.74          76.13        2765.69       -2894.51        3163.91         504.63
         423.61          50.18        1789.47       -1756.48        3043.18         383.24
          74.88          81.23         377.14          80.00        2936.72         198.27
         261.17         210.76         201.33        -311.14        3187.85         555.13
          43.73           6.04        4113.33       -3793.91        3180.78         521.44
         171.03          78.64        5045.53       -5146.15        3400.90         740.75
          33.65         185.32         401.02         -40.87        2970.85         258.42
         357.59         477.40         142.89        -598.55        3170.62         517.01
         491.27          46.91         653.13       -1029.89        3388.54         706.61
         233.09         258.87         722.75       -1637.67        3972.93        1061.32
         167.46          30.07         846.70        -762.03        3267.76         589.66
         247.42          61.68         847.39        -846.83        3240.29         578.14
         302.90         123.28        1067.16       -1214.56        3271.18         604.11
         160.84          27.32        1602.57       -1629.68        3388.91         699.88
         594.33         133.06        2552.91       -2793.62        3063.29         353.03
          87.08          34.36        1997.93       -1565.82        2996.41         289.21
        1051.71         301.76         845.88       -2707.04        4057.64        1089.81
         537.33         115.80         271.50        -666.36        3291.68         626.99
         312.69          51.84         167.93        -115.48        3132.99         452.59
         185.66          64.14         795.76        -423.69        2928.11          90.72
         703.81         159.01        1033.26       -1399.43        3053.32         360.96
         362.36          24.80        1909.48       -1875.26        3128.59         457.40
         186.23         415.22        1854.99       -2490.59        3584.12         843.86
        1168.68         122.66        1739.21       -2767.76        3287.16         602.65
         195.34          29.33         356.66        -226.34        3194.97         565.93
         339.86         338.40         607.84        -815.33        3079.20         392.79
          99.32          85.15          48.01         212.45        3105.03         420.60
          27.55         354.88        1501.89       -1714.01        3379.68         687.42
        1401.15         123.43        1669.52       -2752.11        3107.97         434.57
         205.98          21.20         365.64         -52.92        3010.03         345.24
         415.44          26.29        3748.42       -3539.61        2899.42          95.55
         813.78         707.27           5.23       -1152.90        3176.58         527.34
         634.30          10.61         399.75        -473.97        2979.27         199.55
         282.54         351.86         840.05       -1442.53        3518.02         792.01
          51.56         148.58        4072.07       -3998.52        3276.27         617.03
         395.67         137.08        2053.31       -2124.88        3088.77         399.74
         472.23          14.38        1441.23       -1639.62        3261.73         601.57
         280.02         279.24         550.97        -628.27        3067.99         396.60
         251.08          93.39        1569.98       -1350.41        2985.92         292.41
         502.56          87.20         259.37        -247.63        2948.46         160.62
         299.55         119.55         199.94         -75.57        3006.49         292.93
         943.84         210.41         733.35       -1495.23        3157.59         488.99
         134.11          19.46         348.00        -274.91        3323.31         663.50
          62.61         137.53         153.49         204.46        2991.85         332.20
         481.62         242.06         512.04        -810.08        3124.33         484.99
         379.20         234.05         462.35       -1212.68        3687.04         893.17
         322.98         203.67         296.89        -236.01        2962.45         236.52
         637.78          80.76         321.31        -705.95        3216.06         556.37
         255.00         302.95         778.17        -798.61        3012.45         312.50
         277.50          43.54         521.25        -421.17        3128.83         434.39
         565.14         101.89         969.27       -1168.44        3082.11         381.84
         551.31         182.82        1115.55       -1288.37        2988.65         275.87
         162.24         148.98        1476.86       -1289.82        3051.71         343.62
         646.53         169.32         111.09        -474.56        3097.58         442.29
         337.44         125.04        1207.07       -1242.69        3123.11         471.12
         257.14         410.85        1460.40       -1604.69        3026.27         368.06
          78.53         230.55         222.34          64.53        2954.01         187.30
          62.77         179.74        1506.73       -1212.59        3013.33         289.18
         530.69         157.47        2322.43       -3161.63        3700.99         880.92
        1092.46         138.86        1742.24       -2656.38        3232.78         561.29
          52.54          37.18         849.76        -391.79        3002.27         288.80
         285.19          39.19         631.37        -488.91        3083.12         409.79
         180.53         251.15         550.44        -658.72        3226.55         560.39
         293.04           4.16        2852.03       -2742.72        3143.46         493.57
         360.37         127.49        1907.82       -2896.25        4050.53        1103.92
         403.89         265.49         781.81       -1252.82        3351.61         690.87
         163.96         380.64        1611.17       -1883.45        3277.63         622.79
         476.56           1.78        1414.58       -1424.93        3081.97         335.41
         368.98          62.09         430.37        -250.62        2939.13         228.53
         153.01         109.94        2954.23       -3162.98        3495.75         769.27
           5.47          32.23         963.66        -462.08        3010.68         325.96
         273.85          77.68        1129.77       -1044.53        3113.21         433.39
         485.86         313.78        2034.61       -2494.49        3210.20         561.50
         393.59         253.72        2755.62       -3003.54        3150.55         484.25
        1157.13           7.06        1250.45       -2123.80        3259.09         601.10
         459.36          52.30          15.05        -472.87        3496.11         772.69
         486.59         199.98         262.60        -473.14        3073.91         409.07
         446.49          56.64        1014.76       -1000.06        3032.12         379.45
         153.54          84.44        1438.89       -1224.78        3097.90         417.76
         377.27          43.52        3165.27       -3590.47        3554.37         824.74
         810.94         147.14         846.94       -1413.41        3158.35         493.92
         496.03          37.38        1769.87       -1783.04        3029.73         361.94
         377.41         127.02        1700.80       -2210.97        3555.70         811.08
         850.51         121.26        1209.76       -1918.67        3287.08         590.45
         231.14          26.88         911.00        -673.28        3054.23         401.04
         177.09         155.03         368.60        -322.94        3172.17         518.61
        1294.29         331.45        1087.96       -2526.60        3362.87         680.31
         437.73          22.39         719.79        -951.33        3321.39         656.08
         478.57         105.80        2562.47       -2616.45        3019.55         278.74
         602.66         189.15         707.19       -1154.98        3205.94         527.60
         218.27           3.49        2542.61       -2191.75        2977.35         215.11
         132.82          78.65         879.72        -634.50        3093.27         407.95
         797.61         216.70        1747.92       -2680.52        3468.25         751.10
         712.13           5.33         154.94        -258.00        2935.57         238.08
         721.93         211.39         552.46       -1424.96        3489.13         785.34
         518.66           7.84         380.84        -310.81        2953.43         201.53
        1059.63         112.44        1495.99       -2669.13        3551.01         808.05
         355.16         240.08        2402.38       -2564.73        3117.08         456.95
         151.06         617.25        1642.13       -2179.43        3318.94         618.64
         610.03         156.91        1001.59       -1214.83        2996.24         305.23
         266.78          63.19         542.58        -760.79        3438.21         741.66
          24.69         110.74        1177.57        -946.54        3183.51         535.75
         180.25          24.41        1939.90       -1672.38        3077.77         372.75
         142.78         341.99        3469.48       -3440.01        3035.71         296.67
         497.77          45.71         415.44        -586.56        3177.59         548.39
         337.20          85.84          11.69          68.70        3046.53         388.05
         301.53         108.29        1151.36       -1043.06        3031.85         292.45
         693.82          79.39        2316.25       -2550.80        3011.30         341.73
         299.38          20.51         535.99        -644.89        3338.99         631.93
         318.87         136.47        1587.36       -1469.68        2976.93         275.70
         257.42         642.84        2280.90       -2619.76        2988.57         334.73
         118.32         144.12         699.24        -466.45        3054.74         332.32
         498.14           2.59        5322.40       -5181.18        2908.02         104.96
         433.83          42.62         929.41        -808.31        2952.39         190.80
         275.83           8.88        2089.41       -2119.76        3295.62         611.95
         416.53           7.57        1175.36       -1198.36        3148.85         505.86
         592.66           2.29         925.37       -1045.23        3074.84         376.43
         540.44          55.73        3370.81       -3408.10        2991.09         341.06
         209.98         162.67         936.44       -1181.65        3422.52         731.56
         544.54          69.30         633.36       -1103.62        3406.37         740.74
        1547.30          93.36         262.09       -1288.51        2935.72         125.10
         103.22         133.50         237.63          74.39        3001.22         299.01
         385.84          72.45         336.19        -213.38        2968.87         261.74
          87.40          53.14        1409.85       -1431.25        3430.82         746.02
         630.02          71.51        1131.22       -1636.47        3353.70         679.69
         282.53          10.92        1571.81        -299.16        1983.86         277.79
         336.62           7.98        1969.34       -1971.01        3207.03         541.46
          57.43         257.68        1823.85       -1724.22        3135.22         467.94
        1188.13          32.24         466.71       -1183.91        3046.79         386.71
         432.08          89.06         115.25        -502.76        3416.33         754.01
         961.88         312.90         313.83       -1353.67        3315.03         644.82
         295.82         138.03         457.27        -410.49        3069.33         394.67
          75.45          72.86        1070.47        -719.98        3051.17         432.90
        1475.80         139.25        2656.75       -3998.88        3277.03         607.16
        1385.65          39.47         101.74       -1187.61        3210.72         549.98
          59.33          15.96        1176.30        -872.06        3170.44         512.52
         241.80         303.27        1849.01       -1823.46        2979.35         302.87
         471.60          11.90         621.23        -593.17        3038.38         343.11
        1411.95          10.88        1020.16       -1957.04        3064.02         390.34
         262.39         213.47        2928.41       -3382.47        3528.14         818.35
          12.06         241.36        1343.24       -1032.45        2985.75         319.98
         393.93          27.04        2015.61       -1854.08        2967.45         195.02
         484.29          98.87        2497.38       -2840.78        3310.20         628.75
         501.56         250.58         306.37        -704.42        3195.86         535.21
         893.98         500.46        2585.24       -4061.17        3631.45         869.03
         123.01          17.53        2763.34       -2624.92        3271.00         593.50
         150.11          95.05        1766.86       -1754.09        3292.04         631.44
         448.75          99.87         979.53        -906.94        2928.77         178.97
          60.37         208.12        2078.94       -2289.07        3491.60         760.26
         850.36         225.25        3173.00       -4385.40        3686.74         895.21
         310.54         727.60        2970.42       -3511.63        3053.01         392.74
         112.08         134.84         829.60        -511.40        2984.84         296.99
         581.32         132.70         344.51        -595.44        3086.87         417.54
        1097.04         103.97        3245.45       -4023.45        3126.95         469.53
         276.65         112.08         975.49        -820.87        3006.63         279.96
         704.43          38.41         946.61       -1140.18        3000.68         335.28
         698.54         200.67        1711.01       -2091.57        3031.31         355.07
         979.87          35.00        3678.07       -4098.23        2955.26         230.90
          75.89         134.50        1332.60       -2038.17        4045.14        1096.55
         217.07          83.55         329.60         -57.51        2977.25         238.12
         187.84         774.14        1817.54       -2270.83        3041.26         316.65
          90.16         105.57        1965.57       -1559.54        2948.21         199.08
         405.68          18.24         353.36        -288.65        3061.35         380.12
         492.61         412.28        1743.36       -2494.80        3396.50         688.15
         449.70           6.81        1300.63       -1405.07        3197.89         535.02
         244.75         205.09         337.98        -252.09        3014.23         270.85
          57.46          17.18        1299.79       -1003.63        3179.17         536.39
         783.26          10.09         144.03        -351.14        2963.74         168.04
          81.99         174.20        3252.90       -3481.07        3521.93         797.81
         821.67         147.08        2104.79       -3018.63        3495.05         788.13
         264.59          37.71         747.59        -476.99        2977.07         208.92
         180.36         229.62         714.00        -790.97        3216.96         570.07
          84.47           7.45         882.85        -532.18        3107.38         445.36
         349.27         342.69         160.96        -444.32        3141.34         469.26
         613.80          86.70         529.99       -1573.11        3892.57        1003.23
         424.28         105.01        1542.80       -1513.35        2991.24         317.09
         151.18         335.96         697.54        -678.86        3044.17         350.63
          23.20         126.51          87.74          89.16        3223.33         561.37
         388.67         275.30        1240.30       -1671.35        3317.03         644.22
         457.84          68.59        2381.23       -2529.60        3171.90         523.95
         129.50         244.25        1150.08       -1204.61        3230.75         573.69
        1177.94          10.90        2117.81       -3184.30        3427.61         718.80
         386.29          83.61         799.14        -776.67        3057.58         454.72
         551.29          18.70         734.14        -710.68        2956.52         214.92
         416.56         159.14         485.13        -554.86        3044.00         382.57
         113.72         194.78        1313.18       -1269.09        3197.36         540.62
         860.09          65.64        1713.79       -2041.61        2952.04         207.59
         131.93         210.07        1991.73       -1899.11        3115.35         472.63
         653.25          31.09         472.45        -934.70        3327.88         669.94
         216.62         125.43        2232.06       -2084.80        3060.66         383.63
         472.23         343.93        1109.02       -1630.66        3255.44         618.52
         247.80          61.40        1547.65       -1543.87        3236.98         591.43
         304.15          90.71          95.79        -791.46        3850.74         990.30
         400.65           8.67        1203.27       -1269.11        3206.49         541.82
         353.24          83.06         725.38        -680.63        3068.90         414.64
         809.87          14.33         121.78        -434.08        3038.05         343.13
         506.29           2.86         468.83        -435.28        3007.26         319.77
         110.89         126.26        1472.82       -1190.56        3030.55         336.00
          84.78          77.87        1989.21       -1753.24        3151.33         509.24
          93.30          16.43        1578.96       -1105.64        2966.89         251.31
         235.33          86.72         435.63        -342.24        3134.50         477.52
         730.79         116.34         731.53       -1182.36        3153.66         499.42
         529.09         122.48        1570.79       -2065.27        3392.88         731.17
          64.06         223.74        3506.60       -3638.50        3394.05         701.58
         149.64          31.53        2024.56       -1749.30        3093.54         441.47
         518.82         128.03         341.30        -453.53        3015.35         396.01
         215.86          47.36        1336.54       -1140.27        3090.47         436.34
         506.64          55.85        1477.61       -1797.25        3307.09         631.17
         326.59           4.77        3348.44       -3218.24        3088.42         452.59
         257.01         157.91         580.53        -507.58        3062.07         353.75
        1014.31         264.75          65.24        -892.80        3098.46         405.51
         179.31          93.64         636.18        -356.30        2997.13         348.61
         672.03         168.74         193.51        -511.47        3027.16         355.75
         784.79          75.31        2010.95       -2432.07        3110.98         460.34
          46.43         475.93        3300.84       -3508.48        3235.27         590.43
         311.39         128.39         117.54        -229.60        3222.24         566.78
         255.15          59.95        3572.34       -3278.23        2940.74         148.33
         512.12           8.33         553.82        -875.99        3351.68         669.44
         936.11         138.76         567.49       -1260.28        3167.89         501.03
         977.00          93.84         275.84       -1138.46        3341.73         662.07
         172.28          55.38        2443.28       -2162.02        3041.04         368.38
          66.33          86.71         505.44        -420.03        3311.52         625.89
         535.83         163.58        1814.41       -2083.12        3119.25         499.06
         111.41         109.95        2514.42       -2263.65        3077.82         485.32
         138.01          72.88        1391.17        -962.15        2910.05          77.18
         150.01          99.16        3999.96       -4754.43        4055.25        1094.92
         256.29          97.52           6.66         159.01        3030.48         351.37
         436.48         342.17         230.25        -456.63        2997.68         288.07
         139.28         160.31        2156.23       -2201.06        3295.18         650.40
         122.56         146.40         650.76        -614.05        3244.30         595.12
          15.19          24.85         170.80         318.04        3021.09         327.62
          49.20          43.60        5999.29       -5760.93        3218.79         566.12
         624.98         224.51        1092.05       -1675.50        3283.93         666.12
         431.49         138.15        1826.94       -1841.15        2994.56         310.55
         151.40          71.31        1648.07       -1602.62        3281.81         614.98
        1149.31          10.63          93.78        -775.94        3072.18         414.19
        1090.33         121.60        1521.17       -2217.83        3034.68         355.82
         351.66         178.18        2715.06       -2970.42        3275.50         639.09
          75.30         159.26        2500.59       -2191.89        3006.71         305.46
         291.03         441.50        4807.60       -5102.38        3112.23         428.42
         152.55           6.17        1446.02       -1086.59        3031.82         343.71
          74.64         263.33        1475.96       -1365.34        3101.36         464.10
         726.56         134.99         209.84       -1033.09        3511.67         817.05
         277.63         274.27        4328.35       -4811.10        3480.80         765.07
         187.22          96.78         750.73        -645.56        3160.80         501.08
         221.75         110.87          12.61         253.23        2951.51         218.38
         197.31         107.72         816.33        -992.26        3420.88         706.86
         151.36         157.10         262.95         -20.90        2999.46         306.63
          72.54          29.79         541.81        -231.72        3137.57         487.73
         855.50         202.43        1400.46       -2137.03        3228.59         567.49
         527.73         133.04        5310.53       -5521.73        3100.38         422.83
          45.94         343.66        1596.82       -1437.64        3001.19         284.93
         296.54         228.82         214.53        -459.32        3269.39         612.45
         632.26          75.29         317.15        -728.33        3253.59         611.13
         183.81         107.85        1146.11        -842.00        2954.21         199.03
         121.55         677.01         654.81       -1409.63        3506.21         772.82
         397.11          38.80         689.15        -771.33        3196.24         530.78
         826.27          84.06         616.50       -1021.28        3044.41         353.11
         344.10          44.07         565.55        -727.00        3323.25         664.33
         273.88         233.71        1225.72       -1593.41        3410.07         723.13
         629.37           8.41         986.24       -1239.23        3165.17         549.26
         128.88         155.38        1011.85       -1192.31        3446.14         758.55
         193.21          33.50         709.07        -646.16        3260.35         630.06
         376.83           7.02        3559.63       -3415.47        3021.96         293.97
         539.79         269.76        1872.52       -2270.90        3138.79         484.89
         130.77          54.41           1.47         303.94        3059.36         401.07
         982.23          88.64         246.53        -802.27        3034.83         333.67
         226.88          28.48         836.89        -551.87        3009.61         218.79
         655.62          73.37        1021.75       -1484.79        3284.02         630.50
         726.68         350.70        1213.58       -1994.57        3253.56         574.99
         399.67         547.74          24.05        -643.46        3221.95         592.37
          18.25          28.87         146.71         230.29        3125.87         495.12
         138.10          14.16        2530.15       -2920.56        3788.11         968.68
         749.56          73.79         528.04        -875.50        3074.08         394.49
         894.66          73.59           3.81        -461.94        3039.83         363.65
         317.22          89.41         296.44         -87.05        2933.94         187.94
         174.69          13.59        2886.94       -2489.17        2963.91         183.98
         226.90         180.57        1408.83       -1248.35        2982.01         276.67
         506.29          28.86         134.42        -697.62        3578.01         831.13
         131.71         374.62        2836.40       -2804.10        3011.32         286.68
         375.11         139.62        1612.37       -1645.51        3068.38         428.57
         158.25         157.71          50.55         -40.87        3224.31         568.38
         452.10          74.53          24.21         -17.88        3017.01         337.83
         538.41         129.05         801.26       -1090.94        3172.19         496.60
        1095.02           6.03        1090.98       -1600.82        2958.75         121.98
         539.39         140.88         314.95        -856.94        3411.69         705.58
          75.82           4.04           9.95         381.55        3078.61         396.82
         124.56          62.19        1310.88        -997.12        3049.46         391.87
         166.71         186.86        2022.91       -1839.07        3012.55         319.30
         563.14          85.28        1055.67       -1252.57        3098.43         399.60
         217.16          61.36        2769.91       -2631.54        3133.07         490.43
         528.44          69.73        1324.50       -1853.58        3480.88         785.27
          34.16          63.06         424.98        -358.93        3386.70         718.07
        1103.60         164.53        4430.58       -5137.81        2989.06         260.30
          39.53         118.58        1166.38        -771.11        2996.58         266.49
          29.87         189.81        1752.86       -1417.96        2995.38         330.92
         473.05          45.61        1079.69       -1257.11        3208.72         561.28
         313.38         181.40        1311.81       -1475.84        3219.22         580.92
         155.77          56.35         818.17        -472.72        2992.39         284.21
         527.27         199.03        3043.57       -3661.25        3441.33         740.61
         260.49          58.26        2289.51       -2321.51        3263.21         600.91
         520.46          16.49        1436.44       -1499.84        3076.39         404.41
         500.66          13.99         301.77        -500.76        3234.29         582.79
         253.98         187.21          90.36        -688.98        3707.39         907.51
         298.69          16.32        1583.72       -1623.54        3274.76         618.94
         316.76         208.38        1713.26       -1656.56        2968.13         247.17
         304.69           8.73        1138.04       -1153.86        3252.37         572.96
         123.69         561.36         415.55       -1239.99        3689.34         903.21
         976.50         222.75        2582.81       -3257.28        3025.16         364.59
         787.32           1.59        3263.82       -3496.29        2993.51         252.60
          36.43          93.73         457.29        -222.67        3185.17         539.78
        1646.82         358.16         128.82       -2248.54        3664.71         891.06
          62.41         171.93        1052.69       -1234.96        3497.89         784.89
          50.96         514.61         730.04        -898.25        3152.60         519.09
         267.83           4.27          16.84         -60.74        3321.76         671.13
         152.54          41.72        2164.35       -2181.28        3372.61         697.20
         615.93         257.03          31.83        -731.08        3376.25         687.35
         171.84         149.33        1588.91       -1346.39        2986.28         270.57
         818.95          32.66        1682.82       -1941.47        2956.99         230.83
         406.50          51.70        2208.77       -2088.10        2971.09         254.55
         275.67         135.71        2886.20       -2887.03        3139.39         506.07
         168.91         306.82        2305.16       -2423.61        3192.68         541.28
         862.37         361.99         560.30       -1293.47        3058.78         393.76
         404.70          34.07        4238.37       -5024.72        3897.52        1030.25
         313.23         210.36         675.88       -1069.52        3420.01         721.23
         553.42          18.72        3569.48       -3605.86        3014.20         228.26
         236.21         480.53        1531.13       -2047.95        3350.02         678.06
         345.22         105.44        1326.17       -1265.64        3038.77         365.77
         369.35           9.68         358.77        -342.58        3154.73         490.07
         198.74         149.15         606.34        -437.53        3033.24         366.69
         371.31         370.35         283.21        -660.46        3185.56         504.00
         157.22          97.52        2105.44       -1876.82        3066.59         385.50
         184.73         272.08         328.76        -215.07        2979.46         313.67
         374.03          17.03         419.52        -352.86        3092.24         449.39
         320.79         117.98         130.65        -124.97        3105.52         431.04
         216.64          67.46        1183.89        -958.66        3040.64         380.61
         343.85         317.42        2955.94       -3105.46        3038.19         322.72
         444.95         262.00        1943.24       -2317.41        3217.18         528.46
         164.76         123.73         142.44        -172.61        3291.64         633.35
          31.30          27.31        2066.58       -1710.64        3135.40         492.52
         514.83          71.34        3192.43       -3228.71        3000.06         294.76
          55.05         206.11         885.01        -629.53        3033.32         311.16
         464.50          31.63         239.01        -718.79        3533.61         825.33
         805.78          30.55         413.59        -740.79        3040.81         370.09
         102.12          56.57        3237.70       -3076.54        3230.10         591.11
         181.71         231.76         933.54       -1127.47        3330.41         667.52
         107.73         205.80         376.64        -127.00        2986.80         243.02
         655.23         188.24         688.09       -1420.96        3439.38         756.92
         107.30         156.46        1157.19        -971.88        3100.88         429.38
         321.96         127.29         990.96       -1396.88        3506.63         797.36
         311.45         279.22        1959.69       -2213.72        3213.34         567.42
         416.87          46.03        2934.76       -2852.03        3004.33         238.86
          71.82         102.48        2178.83       -1965.21        3162.04         502.90
         402.83         352.58        1446.69       -1817.80        3165.66         507.01
         210.10          79.79         128.83         -12.53        3143.77         500.70
         201.84         446.52        1484.00       -1788.43        3206.04         537.19
         275.02           2.99         839.56        -708.71        3141.11         473.30
         507.86          23.58        3084.11       -2990.07        2924.49         213.92
         221.38          32.81        1429.10       -1443.21        3309.88         631.70
         962.84         101.32         394.15        -896.84        2988.49         295.40
         145.54         152.39        2416.94       -2319.62        3154.71         487.76
         407.83         330.63        1950.60       -2120.32        2981.22         269.22
         350.62         100.29        1860.99       -1866.71        3104.77         413.63
          99.88          26.18        2898.30       -2458.77        2984.39         295.97
         188.31         202.60         453.31        -345.82        3051.57         307.00
         508.81          17.46         690.61        -723.42        3056.49         371.37
         679.15          45.47         393.88        -508.00        2939.45         175.77
         378.77         134.42         692.65        -651.24        2995.38         305.21
          16.15         224.18         844.66        -686.77        3151.76         506.31
         129.87         239.31        1669.81       -1872.03        3382.99         693.14
         532.52          31.44         223.20        -451.53        3214.33         549.34
        1458.47         140.51        1485.63       -2928.37        3393.74         687.18
         535.01          49.87        1094.03       -1065.16        2936.22         195.69
         343.47         151.38        2737.45       -2739.62        3057.27         420.90
         954.45         276.45         577.42       -1972.50        3714.13         907.46
         254.96          16.27        1753.13       -1424.66        2950.25         189.66
          14.35         112.58        2971.29       -2752.39        3204.15         574.41
         255.68         129.85          84.49          69.77        3010.18         356.24
         115.28         487.72         469.58        -668.29        3145.68         538.53
         330.64          50.07        1097.52        -955.14        3026.86         324.81
         190.34         136.50         191.39        -798.18        3829.90         983.96
         559.34         155.14         139.62        -275.72        2971.59         245.53
         310.65           9.90         141.26          62.99        3025.16         316.98
         224.54          38.86         867.47        -659.41        3078.51         421.64
         185.73         752.84        3172.00       -3721.16        3160.57         470.12
         794.71         816.35        1251.58       -2328.86        3016.17         318.90
         141.95          92.82        3523.06       -3499.84        3292.00         623.91
         332.13          17.54        2194.03       -1974.56        2980.83         302.20
         576.69          12.42         422.44        -401.90        2940.32         173.32
         543.68         104.14        2984.35       -3084.80        3002.60         261.32
         890.18         179.33        1682.74       -2185.18        2982.87         276.42
          96.53          17.73        2589.93       -2101.38        2947.15         196.67
          43.02         228.39        2059.70       -1736.63        2955.50         251.26
         797.15         275.63         559.50       -1070.25        2987.93         294.51
         372.15          87.07           3.39         -82.53        3169.88         473.13
         572.72          67.29        2849.04       -3036.47        3097.37         407.04
        1416.36         181.07         620.77       -1908.10        3239.84         569.17
        1221.47         422.42         424.45       -1719.66        3201.27         576.53
          80.84         221.67        3661.28       -3610.58        3196.75         554.71
         300.34         161.12        1938.06       -1898.35        3048.80         366.71
         932.13         177.05        3034.64       -3568.65        2974.80         293.08
        1180.15         158.64         524.45       -1271.35        2958.06         270.12
         361.96         369.03        1672.62       -2194.98        3341.34         670.81
         187.07          50.73          64.98        -185.89        3433.08         725.76
          53.21         103.10         957.79        -733.64        3169.51         524.14
         524.24          32.33         812.71        -770.71        2951.41         211.81
         608.08          10.57        1153.81       -1290.08        3067.59         397.69
         272.94         110.28          35.19           2.17        3129.39         489.96
           1.25          21.18         927.88        -554.89        3154.55         476.92
         781.73         694.87        1642.84       -2627.99        3058.49         401.22
         795.12          71.94         159.71        -991.59        3514.78         806.64
          81.28          11.36        3315.11       -2887.15        3029.34         376.14
         669.78          21.91         279.10        -455.72        3034.87         382.96
         428.84          10.44         743.30        -824.86        3192.23         527.03
          46.23         111.11        3231.25       -3155.51        3316.90         666.81
         466.41         221.84         171.48        -332.38        3022.61         337.72
         482.81         178.11         879.01       -1242.10        3252.14         584.20
         985.59         301.01        2007.73       -2716.79        2972.43         266.58
         308.88         269.68        1744.61       -1798.09        3024.89         381.37
         343.46         245.82        2110.57       -2267.25        3117.35         462.34
          47.70         143.26        1882.39       -1560.70        3037.31         328.59
         623.18          25.60        1403.68       -1947.55        3445.04         755.42
         230.18          13.59        4177.79       -3876.92        3005.31         290.19
         125.82          70.11          20.59          75.43        3258.01         581.12
          73.43         129.62        1796.84       -1469.60        3019.67         390.17
         124.47          92.65        1998.12       -1657.19        2991.89         229.98
         305.62         279.16         810.37        -898.74        3053.56         392.44
         974.53         166.91        1694.02       -2335.24        3049.73         356.13
         219.95          21.51        1139.56       -1649.74        3818.67         973.57
          83.45          23.20        1996.18       -2107.36        3554.48         819.82
         305.93         135.20         277.06        -133.63        2965.40         236.34
         458.14         155.19         804.69        -970.32        3102.26         437.72
         146.12         136.66         414.57        -494.15        3346.77         673.65
        1142.70          98.00         936.73       -1751.68        3124.21         457.57
         583.16           8.56         788.96        -744.62        2913.90         153.36
         256.10         118.33        3932.71       -3994.66        3237.46         566.63
         656.73          26.98        2349.40       -2577.46        3094.33         371.50
         402.94          98.87        1276.97       -1371.19        3142.37         495.34
          82.35         103.03        1195.42        -855.92        3025.07         327.30
         457.84          81.53        1948.87       -2238.24        3299.97         641.39
         589.37          44.23           5.20          27.29        2883.88         187.26
         376.76          88.13         153.93        -105.16        3036.30         354.28
         771.47         131.07        1882.48       -3123.73        3888.66        1020.93
          14.44         150.48         498.92         -74.80        2960.92         229.44
          61.63         423.54         373.55       -1053.98        3745.22         941.04
         128.80         129.37          61.31          35.96        3194.52         503.72
         484.30         111.85         901.59        -939.70        2991.93         285.18
         385.54         157.49        2080.18       -2065.82        2992.57         295.14
         111.49         190.47         161.32        -298.32        3384.99         704.15
         304.32         167.95         394.15        -520.43        3203.98         554.65
         991.93         172.41        2670.05       -3340.31        3055.87         375.32
         481.14          51.25         183.50        -262.65        3096.71         446.40
          19.78          60.06         231.23         185.83        3053.06         410.55
          57.91         113.02        1982.02       -1765.67        3162.69         504.27
         437.61          35.03         804.49        -960.00        3232.84         571.51
          77.27         341.34         322.65        -501.25        3309.95         659.11
         566.90         160.82        1135.31       -1594.93        3281.86         632.34
         660.19         188.97         121.40        -751.17        3330.56         654.12
         102.92         347.20        1431.54       -1415.51        3083.81         402.92
         178.94         142.70        2501.04       -2623.11        3350.38         669.38
         253.32         168.51        3275.38       -3101.31        2954.05         221.67
          91.72          25.44        1345.79       -1134.42        3221.44         573.73
         690.28          81.74         238.86        -507.45        3046.53         368.22
         214.96          44.81         954.89       -1038.10        3373.41         701.97
          43.39          60.57         804.57        -466.33        3107.77         468.78
         414.99          40.13         324.87        -785.33        3555.32         820.89
         571.92           5.40         198.68        -315.31        3089.28         444.24
         153.51         724.34          33.20        -699.28        3338.19         692.09
         500.36         246.55        1199.88       -1586.82        3189.99         540.27
         921.08         143.86         850.80       -1573.83        3208.03         570.46
         187.76         248.59         881.00       -1113.82        3346.44         634.24
         221.89          76.59        1561.40       -1980.95        3671.03         894.90
         608.91         103.75         330.12       -1150.32        3657.47         903.03
         198.23         181.91        2355.24       -2589.41        3404.00         723.08
         203.30          77.33         681.60        -419.68        3007.41         300.32
         535.78         345.80        2069.16       -2429.86        3029.09         397.19
         417.12          14.65        4567.07       -4773.92        3325.04         695.19
         111.80         327.96        3103.62       -2935.01        2941.60         210.76
         298.15          21.34        4040.44       -4093.18        3283.24         581.54
         547.53         225.88         290.43        -924.99        3411.10         724.12
         216.67          71.27        2167.92       -1905.23        2999.34         304.66
         581.25         118.02          11.47        -235.24        3074.44         405.61
         666.52          56.07        1009.39       -1734.86        3552.83         812.79
        1468.92          72.24        1110.77       -2466.71        3364.75         692.66
         102.90          81.90         876.87        -465.97        2954.26         120.76
         515.33         159.92         409.09        -672.16        3137.78         500.17
          68.62         745.72         887.97       -1378.09        3225.75         567.97
         535.18          44.92         848.53        -904.10        3025.43         321.51
         417.03         207.89         266.17        -445.56        3104.44         455.45
         493.07          73.94        4641.96       -4583.90        2924.90         159.24
        1358.47         285.29         333.66       -1443.57        3016.11         329.40
          43.86         136.39          67.69         151.01        3151.02         528.12
         722.02         114.36         211.66        -522.44        3024.37         409.37
         281.83          15.64        1423.25       -1294.48        3123.72         462.15
         411.26           9.89         558.67        -510.04        3080.18         419.70
         225.15          31.97        1380.69       -1064.90        2977.05         236.70
         362.11          98.71         615.54        -567.67        3041.26         335.26
         228.47          13.97        3157.30       -2818.73        2968.96         259.33
         433.47         385.17        1328.92       -1689.03        3091.44         445.38
         659.88         183.91         813.26       -1246.94        3139.83         499.53
         200.91         120.18         729.40        -724.99        3224.46         584.91
         201.04          79.31          75.17         207.79        2986.65         289.64
         452.11         123.57         319.22        -318.08        2973.16         267.49
         242.94         100.92         455.31        -164.02        2914.81         106.42
         154.35          12.90         764.02        -710.99        3329.68         651.80
         146.94          42.29        1190.87       -1173.75        3343.62         676.94
         540.22           2.22        1475.18       -1520.00        3052.34         327.06
         530.35          79.67         131.76        -602.53        3410.72         731.60
          95.63         168.58        1573.98       -1296.87        3008.62         318.61
         231.58          27.71        2792.12       -3072.69        3571.24         823.96
         310.66         239.22        1111.60       -1132.94        3021.43         380.85
         328.94          17.52        3559.66       -3478.48        3122.34         494.48
         192.46         180.37        2568.06       -2793.20        3402.27         716.38
         168.90         136.91        1154.24       -1008.05        3097.97         392.93
         432.00         346.72        1612.23       -1830.48        2989.50         300.48
         258.70         110.88         660.35        -815.90        3335.94         662.61
         179.06          55.27        1109.44        -711.82        2918.00         250.88
         182.61         370.56         561.76        -786.98        3222.02         546.37
         209.82         144.02        4414.29       -4588.50        3370.34         708.09
         826.40          68.93         192.25        -771.88        3234.26         595.54
         274.92           7.49          16.64         151.80        3099.08         450.17
         270.24         155.65        3807.41       -3640.58        2957.26         313.22
         391.01         240.77        2129.75       -2332.83        3121.24         481.00
         661.56         111.75        1445.26       -1630.43        2961.82         222.15
        1457.58          81.04        1699.67       -2672.14        2983.80         299.06
        1559.17          36.52        1840.52       -3070.64        3184.38         551.59
         466.67         234.81         702.59       -1268.41        3414.31         707.10
         506.12          51.06         516.72        -674.88        3150.94         495.32
         122.92          40.73        2570.41       -2233.03        3048.93         406.59
          46.99          46.55        1731.86       -1305.18        3029.75         356.47
         830.77          68.05         857.02       -1382.78        3176.90         456.41
         301.87          26.13        1299.47       -1102.11        3024.60         363.59
          93.59          12.15          27.63         445.83        2970.76         269.28
         125.04           5.78        1625.70       -1261.85        3055.31         394.29
         996.68         280.53         858.19       -1759.96        3174.53         528.38
         369.80          62.80         780.74        -771.48        3108.10         481.15
         187.41         216.10          27.11        -340.82        3460.17         748.67
         107.10         373.54         659.73        -895.45        3305.03         658.16
          23.82          69.50         357.94         140.47        2958.24         305.45
         287.82          28.63        1982.23       -1867.18        3118.47         472.30
          87.06          17.60        1108.91        -857.53        3193.92         551.38
          65.98           5.91        2402.09       -1885.33        2961.33         184.56
         220.74         734.27        1204.74       -2044.39        3434.59         745.44
          94.45          98.70        1595.86       -1289.53        3050.47         335.45
         591.67          60.96        3295.27       -3452.26        3054.32         367.00
         396.76         512.30        2280.67       -2820.53        3180.76         497.27
         201.82         117.94         436.26        -181.71        2975.65         246.18
         647.52         145.66        3062.39       -3318.53        3012.91         306.30
         808.01          50.09          75.98        -392.99        3008.86         321.72
         476.61           4.01        1144.95        -997.26        2921.65         129.08
          62.33         112.22         923.27        -869.17        3321.32         653.29
         185.91          65.12        1285.23       -1261.19        3274.89         624.52
         105.39         248.51         392.94        -330.30        3133.42         467.69
         342.83          88.59         473.67        -646.95        3291.81         628.55
         327.83          36.68        1544.06       -1814.43        3455.82         759.19
         386.67         241.59        3448.13       -3800.18        3273.77         608.62
         785.63         447.06          26.84        -722.31        3012.73         306.37
         478.94          25.67         292.76        -377.21        3129.80         504.19
         413.47          26.70         131.77        -146.87        3124.89         468.02
         260.28         219.42        1071.89        -953.62        2951.99         180.02
         182.98         225.29        1646.50       -1486.63        2981.81         216.05
         283.66           2.44         550.58        -357.47        3070.75         352.14
         676.49          25.10        1783.77       -1966.86        3031.45         355.35
         375.97         194.93        4191.65       -4213.75        3001.16         253.79
         939.57         170.00         536.89       -1131.28        3034.79         371.91
         466.16         988.00         646.27       -1521.88        2971.42         236.97
         123.63          72.99        2183.03       -3002.54        4172.86        1153.55
         188.27         106.05         895.98       -1184.90        3544.59         811.87
          51.57         238.47        2358.41       -2461.37        3362.87         683.72
         191.72         171.66         963.38        -816.02        3039.23         357.29
         646.81         267.96        2274.36       -2796.86        3157.69         507.16
         168.44         133.74         245.97        -170.43        3172.22         543.51
         142.52          19.78         247.58         -98.31        3238.39         639.74
          84.08           0.56         919.90        -936.03        3481.45         770.17
         339.84         137.62          23.91         -35.22        3083.81         439.19
        1085.58         235.01        1262.93       -2102.64        3069.09         370.64
         361.31          64.45         664.43        -643.55        3103.31         408.48
         394.19          26.37         592.01        -589.44        3126.84         482.76
          88.96         315.11         530.97        -469.54        3084.48         425.57
         287.57         504.67        3027.73       -3363.64        3093.63         434.62
         287.17         320.67         955.17       -1251.56        3238.53         567.09
         569.20         158.40         515.49        -779.84        3086.71         404.16
         402.18         149.46        1219.76       -1282.55        3061.10         388.49
         217.68         207.62        2093.84       -2431.48        3462.29         765.59
         143.60         203.83        1443.83       -1424.92        3183.63         541.45
         111.05         181.11         444.43        -126.79        2940.14         142.43
         203.81         264.13         830.12        -790.65        3042.53         384.24
          59.25         120.10        2530.85       -2540.47        3380.23         663.37
         471.95         221.63        1927.19       -2171.72        3100.92         484.52
         325.02          32.83        1949.52       -1851.39        3093.96         404.36
         128.09         125.36        1908.64       -1618.55        3006.41         297.17
         769.93         123.58         546.28        -887.02        2997.19         268.82
          83.48          25.06        1622.26       -1268.57        3087.73         432.41
         241.04          75.68         646.65        -822.19        3408.79         725.40
         328.41         279.95        5052.91       -5294.71        3183.41         512.37
         289.07         125.06         926.69       -1141.68        3350.84         669.86
         188.87          51.49        1820.85       -1633.28        3122.05         447.15
         727.61          10.84         888.84       -1270.61        3193.27         548.99
         393.91         174.99        1442.97       -1460.59        2998.69         324.00
        1124.28         103.19        2678.23       -3359.39        3003.64         306.53
         376.82         152.63         177.15        -153.74        2997.11         300.15
         282.31          53.75        1039.98        -841.20        3015.11         331.90
         550.88          46.60        2100.36       -2451.09        3303.20         633.63
         326.95          54.30        2578.76       -2923.58        3513.54         795.93
         333.32         124.76         269.02       -1219.03        4041.90        1099.03
         428.84          43.98        5194.24       -5070.19        2953.08          86.10
         356.41         270.81        1232.32       -1847.88        3538.30         803.90
         359.44         599.31          83.82        -598.35        3105.73         466.49
         323.72          92.63        1596.97       -1669.26        3205.90         531.84
         185.24         194.63        3388.55       -3428.71        3210.26         556.02
         102.51         348.19         132.73         -98.73        3065.26         395.23
         280.96         521.16         240.57        -571.17        3078.46         386.95
         204.85         115.23         269.17        -225.27        3185.98         527.19
         623.52          74.29         341.38        -811.88        3322.63         623.63
         560.13         117.09         364.78        -444.86        2952.80         227.67
         663.13          85.00        2592.66       -3005.17        3214.35         546.94
         748.10           5.31        3776.97       -4035.09        3054.68         391.54
         337.78          71.62        1606.10       -1427.81        2962.30         302.22
         206.14         409.04        1415.22       -1624.38        3143.96         495.93
         812.27          47.04         430.25       -1022.67        3283.08         614.10
          63.63          43.10         406.89         -12.75        3049.09         374.48
         129.69         418.18        4077.08       -4258.80        3183.79         526.61
         769.44          25.47        1067.76       -1519.51        3206.80         629.21
         559.76          40.11        1268.25       -1687.67        3369.50         682.58
         246.24         311.50        1328.50       -1315.76        2979.46         242.27
         886.75           3.19        1360.44       -1714.24        3013.83         307.53
          91.97          57.58        1059.12        -679.65        3020.95         259.01
         530.42          47.61        2346.60       -2406.70        3032.02         320.32
         763.75         339.19        2009.08       -2594.00        3031.93         306.41
         344.78          33.83         820.99        -595.12        2945.49         128.85
         124.17         138.72        1709.96       -1731.97        3309.07         629.09
         131.74         223.23        1184.79       -1199.34        3209.53         555.08
         169.94         160.18         323.05        -110.60        3007.41         320.11
          75.26         154.55         473.18        -147.48        2994.44         273.30
         401.21          97.35         163.91        -142.64        3030.13         362.49
         538.76          29.93        2184.09       -2140.73        2937.91         173.06
         258.34          53.08        2341.95       -2243.33        3139.94         452.24
         844.65         111.12        1087.45       -1653.24        3159.97         491.39
         173.56          21.79          34.16         204.50        3115.96         447.00
         263.84         261.95        1665.53       -1710.59        3069.24         396.42
         304.24          96.12         483.05        -676.20        3342.75         668.54
         240.39          28.89         150.28        -123.53        3253.93         582.27
         172.64         154.25         863.00        -776.48        3136.54         418.92
         238.36         104.83        4022.03       -4223.05        3407.79         717.03
         131.30           3.90         668.22        -381.31        3127.84         456.38
        1047.85         205.29        1265.88       -2146.15        3177.08         523.49
         530.59          10.67        2120.65       -2180.17        3068.21         373.02
         206.10         123.58         384.61        -340.74        3176.41         544.63
         160.66          83.70        1770.28       -1409.28        2944.60         192.58
          60.74          73.40        1142.56        -778.62        3051.89         310.31
         307.88         220.38        1215.29       -1451.35        3257.75         606.21
          78.39         108.40         711.96        -735.93        3387.15         705.98
         862.97         140.75        1657.83       -2209.70        3098.10         456.35
         150.18         390.70        2691.41       -2787.50        3105.17         440.94
         836.79          28.76        1355.71       -2139.04        3467.76         756.56
         466.74         203.82        1861.07       -2180.49        3198.83         538.95
         197.68         403.89        1233.97       -1675.16        3389.58         678.23
         750.34         118.94        2394.85       -2813.98        3099.81         388.45
         243.03         141.87        4282.66       -4499.16        3381.58         697.53
         265.93           2.38         233.87        -218.97        3266.76         613.78
         837.38         112.11         124.12        -820.29        3296.66         630.54
         294.77          38.64         481.28        -806.43        3541.69         816.91
         330.10         149.45        4686.72       -4556.86        2940.56         184.19
         658.69          55.73        1011.83       -1478.94        3302.65         640.59
         317.86          72.31          26.42         -57.55        3190.93         532.92
         225.02          58.03         467.86        -475.57        3274.61         622.89
          75.55          70.73        3383.62       -2943.18        2963.23         218.01
         275.78          51.89        2033.79       -1835.76        3024.25         382.17
         660.59         135.58        1640.61       -2069.39        3182.57         499.52
          14.15          25.61         359.24         150.99        2999.98         291.31
          27.05         595.24        1769.44       -2061.54        3219.75         558.11
         417.88           4.07        1650.50       -1763.01        3240.51         585.77
         341.99          64.07         949.87       -1157.93        3351.96         670.04
         269.50         187.83        1187.54       -1317.52        3222.62         554.46
         145.56           8.71        2516.33       -2167.72        3047.08         416.87
         144.54          78.69        1751.29       -1844.24        3419.68         721.12
         366.35         231.90        2001.91       -2317.84        3267.62         621.35
         525.00         403.64        1581.28       -2247.93        3287.98         626.60
         371.63          88.90        1529.32       -1801.17        3361.29         675.93
          91.29         189.16        2390.14       -2476.23        3355.59         684.43
          75.52         102.65         386.88         -43.76        3028.67         289.44
          74.25          20.89         523.51        -205.73        3137.03         501.71
        1239.63         115.46        3024.37       -4415.83        3586.34         848.19
         496.47         494.53        1414.56       -2144.25        3288.66         625.74
          50.39          75.71         244.50         245.02        2934.34         189.74
          99.85          24.46        3337.85       -3070.65        3158.44         506.90
         149.70          73.20         206.43         -61.42        3182.04         524.95
         668.31         197.74        1158.75       -1911.93        3437.09         760.69
         138.81         224.69         897.15        -947.99        3237.32         589.45
         148.66         361.74         146.93         -96.95        2989.58         266.88
         333.85         355.73          30.36        -392.99        3223.02         555.77
         412.59        1087.16        1115.01       -2047.61        2982.80         262.05
         334.77          77.69        3795.45       -3807.96        3149.99         503.66
         309.45         172.33        2271.37       -2444.83        3241.64         593.50
         149.77          15.49        1112.26        -759.70        3032.16         340.19
          55.12          69.39         117.20         172.34        3135.89         448.28
         430.17         183.61         374.62        -399.68        2961.24         221.86
         229.59         252.36         830.48        -737.04        2974.57         189.68
         131.28         162.14        1243.32       -1028.49        3041.70         369.44
         499.46         259.23        1558.53       -1871.12        3103.90         423.50
         251.87          92.43         806.82        -858.72        3257.56         581.05
         329.53           3.18        3889.97       -3957.86        3285.13         596.24
          71.89          65.89        1317.76       -1472.44        3566.86         817.68
          99.02          34.03        1462.10        -979.80        2934.62         233.94
          62.46          11.43         738.98        -213.97        2951.05         166.04
         303.92           2.92        2477.47       -2172.97        2938.63         177.67
          90.40         218.03        2142.40       -2025.96        3125.09         507.79
         690.89          30.89         790.50        -916.87        2954.55         150.67
          67.35         377.68        1144.37       -1521.33        3481.90         790.26
         103.20         287.49         647.35        -866.48        3378.40         698.62
          87.84          41.47         960.92        -710.42        3170.15         526.30
         217.34          10.00        2118.27       -1979.92        3184.29         551.81
         314.28           9.94        3279.60       -3214.03        3160.18         501.83
         512.20         165.77        3903.29       -4164.13        3132.85         452.44
         272.12         341.47        1256.09       -1936.77        3617.06         867.93
         682.61         260.87        1630.62       -2060.20        3036.06         341.18
         652.20          32.96        1253.70       -1368.95        2980.05         339.61
          78.88          46.59        2532.58       -2104.56        2996.46         284.35
         463.23          36.24        1514.74       -1538.83        3074.59         371.16
         730.39          43.77          29.93        -271.21        3017.08         291.44
         560.93         130.02         652.57        -967.07        3173.51         504.66
         400.01          93.63        1268.76       -1397.53        3185.09         513.15
         551.85          77.33        2176.07       -2226.44        2971.16         275.75
         182.45         129.37        1448.39       -1337.08        3126.83         476.26
         151.37         435.26        1021.05       -1238.12        3180.40         541.56
         101.95          26.89         278.95         198.10        2944.08         380.23
         303.53          42.15        1740.63       -1726.34        3189.99         528.47
         237.50           4.89         671.12        -431.90        3068.36         384.91
          48.70         184.56         144.32         135.01        3037.36         341.39
         188.66         527.13         711.96        -986.83        3109.06         371.25
         144.57         180.47        1566.14       -1509.59        3168.39         492.98
         616.66          64.79        2478.82       -2892.67        3282.36         624.36
         288.89         113.42        1527.55       -2175.06        3795.16         960.01
         790.12          63.22        1140.85       -1666.01        3221.78         548.85
         198.33          49.40        2198.28       -1922.11        3026.06         347.68
         166.74          17.91           0.59         315.21        3049.50         358.82
         803.45         451.87        1181.61       -2143.96        3257.01         597.52
         307.42         125.16        1166.94       -1023.63        2974.09         298.82
         279.66         178.37        1736.53       -1733.68        3089.07         424.34
         244.06          45.16         494.83        -205.36        2971.30         161.56
         495.88         377.18        1073.37       -1424.11        3027.64         335.97
         156.62          18.10        1589.52       -1287.95        3073.66         414.71
         464.26         202.43         486.42        -639.71        3036.57         324.17
         466.26          21.55        3041.26       -2931.93        2952.82         166.66
         442.07         232.08        2439.34       -2798.41        3234.86         555.54
         668.92         114.67        2736.82       -3118.94        3148.52         546.56
         161.49         109.70        1361.29       -1680.32        3597.81         854.96
         273.53          87.22        1046.84        -899.65        3042.01         376.44
         486.68         450.17         183.31       -1087.74        3517.54         784.87
          58.77         207.47         744.12        -398.68        2938.28         148.82
         198.11          11.64         120.66         253.35        2966.21         251.98
         584.80         109.08        2067.16       -2293.36        3082.28         398.37
         549.40         182.52         442.51        -598.63        2974.16         225.53
         396.51          72.53        2863.29       -2903.01        3120.64         446.00
         349.76          65.41         904.41        -954.47        3184.85         521.91
         113.30         119.29         903.43        -754.44        3168.39         502.67
         379.45         142.92        2156.19       -2191.09        3062.50         345.49
          43.06          48.96        2213.39       -1705.60        2950.17         126.28
        1133.23          97.79         767.79       -1426.73        2977.89         125.49
         242.23          82.31        1204.36       -1139.31        3160.37         534.34
         521.14         172.41        1633.16       -1893.68        3116.93         473.55
         385.50          22.44        1385.30       -1425.70        3182.41         507.69
         150.16          20.91         514.98        -295.87        3159.79         494.30
         289.14          68.57         915.88       -1241.38        3517.76         788.80
         352.67          89.59        1146.45        -972.92        2934.17         183.68
         295.94         108.24         245.88        -192.85        3092.77         413.11
         289.66         399.41         572.32        -965.11        3253.68         582.19
         326.42         160.90         126.33        -292.46        3228.77         569.12
         157.78          23.26        3720.74       -3835.33        3483.52         768.57
          50.87         281.06         482.17        -328.90        3064.78         378.26
         135.75          83.81         170.41         182.69        2977.30         234.97
         371.89          41.86        1420.57       -1258.56        2974.21         256.18
         601.69          61.53         126.68        -534.80        3294.87         630.98
         151.14         416.71        1931.25       -1965.27        3016.13         315.02
         262.25          82.07        3001.35       -2876.25        3080.52         432.39
         271.26         313.58        2740.72       -3240.40        3464.80         759.32
         113.54         471.19        1395.81       -1521.88        3091.28         418.24
         362.11         188.46        3221.82       -3540.51        3318.10         651.74
          62.18          37.89          31.03         147.79        3271.07         604.44
         353.69         294.68        1043.55       -1198.00        3056.04         372.31
         304.99         167.29         120.52         -65.25        3022.40         330.49
         884.60          62.12        1579.10       -2297.16        3321.27         648.94
         810.78         369.02        1796.81       -2693.99        3267.36         571.86
          99.33          13.56         796.53        -465.41        3105.96         457.25
         277.39         212.40         347.99        -553.47        3265.67         588.00
         179.26         177.31          14.57          81.87        3096.94         429.40
         125.47         329.52        1859.69       -1868.14        3103.42         450.59
         149.35         645.00        3166.53       -3471.86        3060.92         340.88
         460.14         493.30         958.03       -1376.46        3014.95         319.40
         320.59          97.84         585.68        -701.83        3247.66         600.67
         615.29         267.74        1475.99       -1959.16        3150.09         493.54
         550.31          19.00        3083.51       -3036.93        2934.07         158.37
         625.70          60.45        3656.03       -4065.36        3273.14         605.60
         170.31           4.62         766.31        -681.58        3290.30         629.53
         244.16          52.03        1164.79        -933.53        3022.54         278.21
         539.91         235.39         894.48       -1102.05        2982.23         217.54
          50.02          42.85        1964.31       -1428.22        2921.00         164.17
         360.37          32.22         833.71        -735.54        3059.21         356.08
         537.93         377.07        1050.17       -1516.78        3101.58         399.15
         359.25          31.47         727.44        -738.74        3170.54         488.23
         223.64          73.60        1515.25       -1440.30        3177.77         525.13
         552.38         609.83        2413.67       -3293.62        3267.69         605.57
         398.05          28.52        3001.64       -3204.55        3326.31         638.15
         124.72          15.66        3381.45       -2994.47        3022.60         328.21
         297.60          74.23        1819.55       -1649.20        3007.78         356.14
         316.91         157.24        1317.69       -1457.15        3215.29         537.78
         193.08         402.32         160.09        -852.45        3646.93         890.76
          45.42         228.98         695.38        -456.52        3036.71         245.19
         491.03          10.14        1797.19       -1729.75        2981.36         267.42
         124.33         394.95         942.72       -1082.40        3170.36         534.88
         203.92         254.22        2435.11       -2268.87        2925.58         149.06
         142.67          18.80         115.01         189.27        3084.19         415.31
         466.28         143.63         862.95       -1504.43        3581.52         824.01
          40.76          39.85         203.43          94.23        3171.68         486.55
         374.86         504.53        1837.53       -2360.22        3193.26         553.10
         732.70         345.21        2771.88       -3295.10        2995.24         262.86
         777.18          14.46         987.01       -1177.70        2949.01         186.44
         234.67          10.47        2320.26       -1939.73        2924.30         121.75
         597.21          79.38        1801.38       -1926.56        2998.56         214.98
          93.23          45.20        1094.64        -960.62        3277.50         626.12
         255.21          41.51         591.48        -441.04        3102.81         459.00
         194.21          54.66        1563.85       -1221.58        2958.83         180.93
          90.93          34.01          80.03         325.70        3019.28         425.34
         997.16          15.40         437.58        -909.06        3008.87         320.23
         230.93          44.30        4456.92       -4211.23        3029.02         364.39
         110.81         167.00        1430.02       -1234.07        3076.21         395.51
         306.95         248.72        1048.01       -1209.30        3155.59         487.44
         393.80         155.05         591.34        -651.79        3061.57         374.19
         426.93         121.02        3073.39       -3404.29        3332.90         665.78
          57.96         182.60        1619.59       -1466.11        3155.95         492.11
         424.33          15.42        1935.16       -1805.08        2980.15         286.53
         314.20           6.13         592.59        -641.99        3279.02         636.86
          96.31         280.02        1230.52       -1495.10        3438.21         748.77
         343.09          74.99           6.26        -270.03        3395.63         702.29
         143.11         214.59        2645.26       -3592.94        4139.94        1129.30
         288.00         174.02        1893.49       -2206.00        3400.45         703.75
         177.98         404.55        1870.31       -1858.42        2955.54         287.50
         287.88          49.75         725.48        -702.59        3189.44         545.07
         207.08          13.76        3049.08       -2704.74        2984.76         229.81
         306.04         169.15        1822.39       -1831.95        3084.33         413.65
         242.63           3.21        2483.33       -2269.49        3090.29         399.00
         133.81          72.58         264.45         -82.48        3161.60         510.83
         377.87         283.99        2928.42       -3504.03        3463.70         761.80
         241.82          21.29        1336.64        -976.58        2926.79          45.74
         149.37          98.15         104.53         269.38        2928.52         173.02
         605.31         236.96        1552.41       -2456.91        3612.18         865.13
          81.97          33.10         349.42        -204.88        3290.35         630.78
         270.85          31.90        1608.90       -1335.78        2974.10         239.87
          99.11         512.85        1225.90       -1291.23        3003.34         339.98
         568.54          87.70        1197.64       -1250.35        2946.42         225.32
         241.75         344.85         443.42        -477.05        2996.99         219.99
         304.36         116.00        2460.55       -3025.67        3694.73         898.99
         542.34          33.11         245.13        -636.77        3366.16         696.29
         459.53         290.83        1363.44       -2016.81        3452.96         749.54
           4.79         117.78        1360.91        -887.70        2954.15         208.13
         444.63          33.86        1650.06       -1627.65        3049.06         376.26
        1854.19          98.62          64.60       -1903.83        3436.40         732.05
         567.18         162.59        1297.68       -1923.41        3445.92         738.55
         800.34         168.59        1541.72       -2070.51        3109.82         416.80
         466.14         280.88        2513.46       -2643.47        2932.95         205.18
        1166.46          53.89         117.88        -845.89        3057.63         388.53
         430.23         175.10        1926.18       -1958.65        2977.09         260.21
         238.10          53.08         118.16          58.93        3081.69         415.22
         839.36         204.00         993.70       -1454.55        2967.44         260.65
          29.53         154.66         644.38        -359.21        3080.61         430.53
         196.54           2.56         435.56        -937.35        3852.64        1001.79
          61.11          97.91        2759.60       -2687.70        3319.05         648.18
          41.25         116.88        3803.50       -3398.19        2986.52         242.68
         309.93         171.57         460.78        -784.58        3392.27         671.11
          23.38         108.74        3012.87       -2556.77        2961.75         235.20
         351.69          16.38         863.24        -779.66        3098.33         441.34
          80.72           9.80        3420.74       -3460.25        3498.94         774.77
         597.18          70.67         121.87        -270.36        3030.62         326.96
         724.66         302.62        1355.50       -1933.79        3100.98         465.16
         783.07          72.29          77.12        -593.67        3211.15         555.55
         199.02         164.78         640.79       -1630.09        4175.46        1162.46
         262.47         244.67        2824.04       -2832.97        3051.77         422.95
         113.92         185.19         926.12        -883.97        3208.71         552.79
         327.48         236.41        3263.50       -3525.92        3248.50         604.77
         693.34          19.47        2650.52       -2817.44        3004.06         337.56
         157.44         358.57        1731.28       -1902.62        3205.29         556.87
         274.05          53.38        2551.64       -2883.63        3554.52         816.52
         119.49          64.14         884.26        -643.44        3125.49         463.54
         655.36          22.23         404.74       -1219.26        3686.87         901.84
         532.99         458.59        1816.05       -2268.59        3010.92         367.07
         409.15         471.67         325.03        -756.01        3100.12         453.37
         298.72          19.16        1892.09       -1860.09        3200.11         434.20
         572.22         203.47         348.32        -721.91        3147.86         466.03
         143.08         297.66         448.80       -1265.32        3925.73        1048.29
         450.07         345.88        1468.33       -1933.61        3219.31         538.52
        1105.72          45.56        1287.57       -2339.19        3450.27         745.83
         214.58         521.33        3725.30       -4359.65        3448.40         750.54
         202.53          72.15        2022.64       -2443.41        3696.06         903.66
         288.86         137.32         112.76          40.42        2970.59         282.29
         283.37          83.53        1707.81       -1690.07        3165.32         477.84
         222.26         190.71        2065.36       -1999.94        3071.56         414.25
         929.81          90.16        3069.07       -3747.17        3208.10         572.22
         323.10          97.05         281.27        -207.57        3056.12         392.15
          28.67          61.85        2074.74       -1780.23        3164.93         523.69
         296.65         108.71          48.10        -421.47        3517.97         790.57
         407.62         439.89         668.88       -1327.81        3361.37         665.80
         555.98         364.65        1873.04       -2390.11        3146.40         489.59
         705.11          56.90         204.61        -773.85        3357.19         676.19
         617.61          39.70        2578.00       -2815.38        3130.04         463.19
         825.36         226.82         682.07       -1699.99        3515.67         798.43
          46.37          13.80        1070.05        -686.92        3106.66         463.56
         586.47         134.37        1126.52       -1255.85        2958.45         172.72
         159.18         226.79        1298.90       -1261.90        3126.99         425.45
          95.27          14.89         939.16        -818.38        3319.00         653.25
         702.58         161.77         156.50       -1157.78        3686.89         899.66
         378.11          16.08        4584.49       -4479.90        3051.18         374.72
         279.54         115.51        3071.95       -3128.93        3211.89         584.00
         444.71         400.62        1168.66       -2261.72        3797.67         966.29
         128.30           8.78        1045.06        -728.37        3096.19         375.17
         449.89         349.93        2283.60       -2632.22        3098.76         435.65
        1007.70         221.13        1530.62       -2263.25        3053.75         404.52
         525.75           5.80         765.47        -678.91        2931.85         150.77
         271.40          23.18         136.09         -21.47        3140.76         508.51
         123.43          76.52         515.01        -356.20        3191.21         520.20
         487.54          83.64         329.42        -744.63        3394.00         727.74
         511.72         448.61         929.01       -1355.47        3016.09         338.13
         645.94           5.00         243.01        -580.77        3236.77         591.21
         711.53         418.73         287.31       -1033.40        3165.79         545.44
         170.72         125.44        1252.55       -1618.29        3619.53         854.67
         144.70          13.70         604.67        -169.56        2956.46         190.82
          15.81          84.17        1632.36       -1276.53        3094.13         445.37
        1400.44          95.05        1331.80       -2325.83        3048.50         333.22
         316.54         219.21         932.80       -1248.01        3329.39         627.23
         739.65           9.64        1329.86       -2044.02        3514.81         793.70
         588.55          53.01        1900.98       -2293.21        3300.63         635.67
          76.50          47.56        1135.85        -748.67        3038.71         360.49
         414.11          30.37        1515.30       -1336.92        2927.08          90.41
         306.34           6.89         158.39        -175.93        3254.27         590.69
         309.78          14.58          27.02         152.22        3046.39         407.80
           3.09           5.38        4268.12       -3640.76        2914.15          82.40
        1185.10         505.46        1465.18       -2806.65        3200.83         561.12
         729.05          39.17        1190.30       -1417.87        3009.33         352.79
          56.16         416.55         611.39        -600.70        3066.56         352.53
         602.05          11.24        1702.21       -1819.91        3054.37         371.32
         118.92         263.27         737.80       -1434.24        3864.21         986.85
         164.17         150.92         347.57        -733.36        3620.66         868.77
          85.58          60.69         379.11          31.48        2993.12         324.87
          86.74          39.51         142.90         201.55        3079.27         448.56
         353.71         171.54        1976.21       -1965.39        3013.87         307.20
          77.11         351.30         555.34        -630.76        3196.98         516.62
         543.36         177.07        4361.83       -4779.09        3246.80         605.65
         434.84         109.66         151.03         -95.85        2950.30         190.03
         152.08          67.61        2416.89       -2239.32        3152.69         481.34
         821.06           1.86        1262.33       -1638.03        3102.75         443.84
         141.24          88.73          28.01         -26.80        3318.77         648.79
          31.56          36.02        1269.19        -956.28        3169.47         522.46
         641.90          71.26        1661.18       -2422.12        3597.73         853.19
         356.28         114.36        2670.50       -2608.65        3017.47         302.87
         410.15         102.11        1694.27       -2248.51        3591.96         858.87
         968.55          11.67         770.13       -1203.07        3002.67         262.87
         773.33         124.67        1431.56       -1977.93        3198.34         553.42
         242.09         212.55        1113.63       -1078.54        3060.23         376.22
         806.21         197.89        2032.66       -2620.83        3134.02         480.79
         535.64           8.86          57.08         -28.45        2976.82         312.18
         119.69         130.74        1483.10       -1412.68        3229.11         589.56
          28.51         453.36        2088.89       -2274.34        3253.53         611.07
          61.07          53.50        1954.45       -1497.86        2978.82         237.12
          97.98         446.87          64.57        -557.90        3498.43         784.45
          73.63          46.96         817.44        -456.49        3068.42         387.06
         216.69           7.81        2120.27       -1966.34        3171.55         503.49
         365.12          65.25        2260.81       -2204.40        3063.17         336.89
         445.53          86.72        1329.04       -1290.82        2979.51         122.96
        2112.98         125.78        1828.99       -3552.58        3034.80         356.42
         416.32          87.03        3527.28       -3475.70        2995.05         298.59
         128.45          90.82        1999.01       -2005.79        3337.46         668.90
         399.84          81.52         484.98       -1057.10        3640.72         898.54
        1404.30         456.86        2519.90       -3902.96        3071.86         386.84
        1335.53          25.83         560.34       -1660.55        3288.82         616.85
         172.30          58.40         858.56        -559.87        3020.57         341.74
          33.11           9.03         682.34        -495.34        3320.82         653.53
         531.69         144.09         384.58        -676.99        3166.60         474.89
         117.37         618.69          73.52        -290.66        3031.05         371.18
          84.67           0.41         317.75         166.90        2980.22         264.95
         524.00          89.92        1854.75       -2219.43        3300.72         636.78
         174.65          32.33         932.13       -1299.09        3709.96         925.68
         607.20          11.00         259.75        -495.21        3167.21         515.63
         255.06          91.58         573.71        -683.54        3313.15         661.66
         182.41          44.27        2385.00       -2146.92        3085.22         417.42
         253.63         100.92        1563.04       -1478.48        3110.84         428.80
         580.96         155.55        2393.29       -3032.02        3452.17         742.60
         931.05          68.58        5042.73       -6218.89        3726.48         911.75
        1668.87           9.74         652.68       -1802.88        3021.53         330.49
         806.61          35.21         916.15       -1506.03        3298.02         639.05
         560.28         210.05        2525.74       -3032.66        3286.54         619.08
           3.60         291.90         730.01       -1076.85        3601.30         834.31
         327.96          60.51        2710.28       -3352.41        3803.61         971.99
         218.57           7.00         847.94        -836.68        3313.14         642.66
         171.07           5.48          94.97        -173.59        3452.05         760.37
         756.80           1.93        1662.78       -2027.44        3155.87         488.97
        1908.61         147.79        1259.60       -3078.95        3312.91         652.15
         594.38          72.76        1246.06       -1317.90        2954.66         213.29
          52.73          30.60        1367.68        -996.08        3095.04         465.68
         276.74          57.27        2911.13       -2866.74        3171.57         494.92
         106.06           5.66        3137.81       -2664.66        2965.09         168.73
         326.23         140.92         303.99        -503.37        3282.20         642.72
         307.55         216.23         816.69       -1509.52        3718.99         923.43
         236.72         169.92        1352.07       -1448.11        3239.35         563.54
         164.82          98.25        2913.22       -2760.62        3134.28         479.94
         253.07          73.92        1610.55       -1401.13        3013.55         340.84
         140.97         222.93         562.59        -552.17        3175.66         505.78
         267.03         128.02         733.85        -729.64        3150.72         527.79
          90.27         111.38        1928.70       -1770.74        3190.36         516.20
         751.85         146.94         169.65        -835.83        3317.35         657.38
         506.16          35.52          12.84         -34.17        3029.60         359.97
         149.03          24.04         954.49        -652.23        3074.62         431.10
        1355.78         302.18         989.60       -2125.81        3028.21         346.46
         321.31          44.59        1947.25       -1955.31        3192.14         508.53
         305.81          14.44        1424.32       -1393.12        3198.54         553.40
         211.31          12.61        2907.89       -2543.69        2961.85         162.76
         255.27         267.51        1131.73       -1301.80        3197.25         568.24
         181.32          29.80         276.65        -402.51        3464.70         755.13
         183.10         130.89         102.33          74.53        3059.11         381.42
         135.87         543.34         244.27        -984.89        3611.36         865.46
         521.44          88.23        3938.61       -4426.61        3428.30         742.75
         134.63          19.18        1751.07       -1689.62        3334.71         691.41
         955.63         211.75        1246.09       -2141.51        3277.99         601.04
         208.79          41.07          88.83         125.25        3086.02         405.95
         480.67         500.30        2198.13       -2876.40        3247.27         591.44
          49.91          63.41        1964.78       -1526.42        2998.29         266.56
         580.62         670.23        1754.44       -2994.00        3538.68         828.66
         569.84          30.05         584.24        -834.73        3200.57         513.22
         543.17         349.30        5116.23       -5609.53        3150.82         501.73
         170.31          54.46         772.28        -473.03        3025.94         377.10
         684.99           5.32        1987.59       -2324.10        3196.18         537.48
         208.87          68.81         329.54        -335.48        3278.22         626.52
         145.66         134.67        1478.17       -1261.52        3052.99         392.78
         321.25         225.51        1803.85       -1831.81        3031.16         361.25
          31.16         231.82        2678.83       -2392.71        3000.86         280.84
         392.80         113.91        1094.65       -1340.28        3288.88         659.83
         467.83         382.12         410.91        -763.48        3052.60         333.55
         466.43         274.11        2161.54       -3172.21        3820.09         978.84
         348.93          88.07        2534.89       -2356.19        2934.27         208.55
         341.81         196.88         699.25        -710.91        3022.92         282.60
         125.26         165.21         371.57        -179.15        3067.07         402.92
         552.55          45.72         716.63        -978.30        3213.37         572.13
         279.39          41.30         720.35        -494.08        3002.97         329.63
          48.72         373.06         801.25        -718.91        3045.82         398.28
         462.02         182.78         289.24        -494.59        3110.51         478.23
         112.65           2.11         703.66        -825.81        3557.34         835.99
         192.10        1197.84        1559.83       -2824.77        3424.95         741.83
         776.39         101.33        1800.47       -2084.17        2955.95         202.48
         127.00         394.69        2334.07       -2703.17        3397.38         692.41
          96.93         262.41         222.26        -230.49        3198.87         561.37
         491.57          44.31         270.13        -489.69        3233.63         612.20
         614.84         131.10        2158.01       -2603.03        3249.04         572.16
         178.67         232.04         146.49         -43.38        3036.16         336.53
         323.45          36.73        1250.40       -1013.78        2953.18         181.97
          81.19         310.17        2487.88       -2705.52        3376.23         690.46
          55.45          25.60         468.59        -581.32        3581.66         859.71
        1195.45          20.25        4316.22       -5082.44        3100.47         405.59
         230.63         234.11        2721.45       -2713.52        3077.29         413.27
         737.53          30.67         459.21        -725.90        3048.44         337.31
         457.40          56.27        1149.50       -1175.32        3062.10         389.77
         432.73         446.94        1476.94       -1978.78        3172.14         533.58
          94.90          10.10        1232.44       -1070.14        3282.67         596.95
         206.48         277.56         828.98       -1371.72        3608.66         871.82
         107.05         684.15          51.18        -697.35        3404.93         745.00
         106.63          20.64         793.55        -583.01        3212.17         545.72
        1439.23         585.84        2549.92       -4297.70        3272.65         610.50
         129.69          57.49        1545.46       -1782.41        3599.73         866.67
         127.45         187.12        3782.26       -3506.52        2959.65         242.11
        1042.02          14.19        2796.34       -3598.30        3295.69         630.09
          75.95          49.32         434.46          39.18        2951.05         192.53
         372.69           9.56        2439.10       -2424.51        3153.13         464.76
        1644.10          96.71        1462.63       -2571.02        2917.54         111.01
         325.48          84.31         369.11        -349.96        3121.02         473.61
         381.82         190.93        3627.50       -3943.25        3292.97         629.42
         682.85          40.98        1181.43       -1384.36        3029.08         386.94
         306.98         218.37         901.64       -1564.53        3687.49         918.47
          34.91         243.78        1468.49       -1669.52        3472.28         758.17
          61.95          80.93        1977.21       -1775.80        3205.66         528.72
         720.94         325.46        2269.24       -2793.61        3027.94         330.80
         319.80         500.19         490.83       -1023.17        3262.31         592.61
          58.92           7.08        2715.19       -2447.13        3215.90         593.20
         910.62         157.78        1792.65       -2267.18        2956.08         222.26
          78.55         131.87        4372.99       -5115.95        4082.49        1115.06
         102.29           0.16         136.30         200.54        3110.68         427.99
         365.21          68.76        1617.45       -1678.40        3176.94         527.44
         230.86          34.14         951.00        -652.98        2986.94         283.40
        1117.93         252.88        3010.29       -4226.98        3395.84         704.11
         142.52         139.38        1090.86       -1008.25        3185.45         553.81
         295.93         732.65        1113.16       -1741.44        3149.66         507.06
         310.39          44.25         332.11        -486.98        3350.19         630.63
          84.67         255.33        2458.36       -2265.70        3017.29         347.43
         257.80          53.44         987.28        -738.97        2990.41         292.07
         777.67         210.72        1860.93       -2825.05        3525.70         815.34
         588.92          68.62         825.72        -985.14        3051.86         339.74
         168.73         172.33         789.49        -932.07        3351.46         684.34
          85.90         160.74         613.18        -409.67        3099.82         465.61
         252.92         254.49        2986.54       -3016.03        3072.04         418.72
         522.49         475.12        3946.57       -4401.31        3007.09         344.30
         298.51         212.09         722.50        -866.96        3183.84         553.30
         260.54         245.80        3590.88       -3680.30        3133.06         486.91
         923.76          73.95        1135.56       -1522.84        2939.50         189.35
         499.14          27.20         529.02        -596.38        3090.99         435.68
         194.10          98.69        1488.46       -1323.66        3092.37         430.61
         329.42          56.67         416.35        -549.40        3296.91         651.23
         792.39         280.32         286.51       -1478.64        3669.37         882.54
         409.94         271.98        1538.58       -1725.04        3054.48         358.96
         332.02         119.22         194.60         -62.77        2966.87         259.43
         235.79         163.49         997.71        -903.57        3056.56         316.20
         161.54          26.80        1194.30        -769.95        2937.29         212.13
         559.98         115.23        1432.25       -1675.90        3118.39         452.64
         348.07          55.29        2723.87       -2589.34        3012.07         337.06
         241.92           6.73        1498.40       -1636.78        3439.69         734.60
         434.70          40.41         358.96        -501.46        3217.35         563.47
         113.23         105.17         866.23        -519.62        2984.95         292.29
         357.16         303.07        2714.02       -3405.41        3581.14         825.98
          63.41         168.01        1448.15       -1150.18        3020.55         333.90
         103.31         273.12         789.89        -594.96        2978.60         157.49
         399.06         305.03        1364.73       -1690.51        3171.67         496.56
         806.64         138.19        1337.33       -1668.69        2936.48         183.45
         232.40         138.31         344.77        -153.51        2987.97         227.01
         187.38         159.45         213.10          64.77        2925.25         141.47
         560.79          24.01        2463.41       -2682.08        3183.82         547.85
         160.52         326.30         796.12        -848.49        3115.50         469.68
         389.35          49.52        1687.03       -1495.75        2919.81         174.34
         666.45          27.44        2452.91       -2796.05        3199.19         534.74
         734.27          40.00         346.31        -787.25        3216.63         566.87
         191.80           7.43         303.89         -29.79        3076.65         349.98
         271.38         217.68        3038.28       -3308.44        3331.06         656.88
        1025.32         311.32         680.37       -2005.38        3538.32         801.31
          78.78         341.58         105.65        -399.82        3423.75         736.93
         179.27          10.38         197.43         100.82        3062.05         364.43
          41.07          18.64         975.56        -560.31        3075.00         389.19
         268.58          22.07         552.93        -635.68        3342.04         664.00
          82.28          49.14         935.16        -897.94        3381.33         692.83
         503.43          64.64        2467.87       -2700.76        3214.78         538.24
          15.03         124.21        2246.19       -1987.88        3152.43         478.69
         333.02         158.25        1799.89       -2023.72        3282.52         612.72
         655.77         249.52          71.39        -366.96        2940.22         159.80
         191.80         184.83        1274.27       -1493.36        3392.43         704.92
         387.73         264.65          72.26        -178.55        3003.87         284.71
         711.81         232.62         931.15       -1351.00        3025.38         318.74
         425.00          33.04         972.06        -863.83        2983.70         208.12
         407.74          66.99        1039.71       -1041.35        3076.86         372.73
         184.87           8.10         855.34        -488.50        2990.14         329.95
          86.46         136.30         315.46        -572.35        3584.08         834.82
         884.97         425.83        1896.67       -2776.74        3119.24         437.31
         177.78          26.62         126.15         158.98        3060.42         385.80
         221.57          17.98         148.69         152.18        3009.56         344.67
         908.48          55.58        1842.83       -2240.62        2983.69         230.06
         445.53          17.20        1771.76       -1791.80        3107.27         430.41
         278.73          43.51         243.36        -123.72        3108.09         403.92
         395.05         219.20          26.83        -926.63        3835.52        1009.91
         240.02           9.76         777.41        -496.32        3019.07         338.19
         390.72          28.51         228.84        -254.26        3156.16         509.62
         191.36          88.61        2580.44       -2442.34        3131.88         476.78
         143.63          34.46        2591.86       -2243.67        3023.67         362.70
         323.76         586.95        1695.48       -2188.30        3132.06         479.94
          83.11         121.56         892.04        -751.79        3205.03         556.94
         396.01           8.55         398.51        -264.37        3011.28         280.50
          78.15          57.00         192.19          88.03        3134.60         477.76
         168.73          41.77        3753.43       -3533.78        3119.79         469.49
         459.66         114.47         620.75        -640.34        2995.42         288.07
         131.83         224.69         182.58        -131.84        3142.70         517.24
         274.90         128.19         785.84       -1296.20        3657.21         898.34
         247.63         143.62         313.25        -137.72        2983.18         265.19
         320.39          84.92        1597.29       -1497.26        3044.63         391.90
         346.00          26.52        1758.06       -2139.31        3558.69         836.92
         298.92         233.62        2278.35       -2360.58        3099.65         439.13
         104.11         202.26         764.70        -922.83        3401.73         700.46
         703.74         568.98        1970.87       -2809.69        3116.06         446.30
         254.29         136.88        4186.04       -4105.90        3078.66         354.23
         510.11          27.19         334.65        -242.04        2920.04         105.61
         128.46         133.71          18.99         311.91        2956.88         224.16
         166.70          46.37          41.26         256.94        3038.67         377.45
         234.56          20.87         321.33       -1096.96        4070.16        1112.07
         183.90          44.46          80.75         223.93        3016.93         314.84
         184.35         162.11         576.61        -893.00        3519.87         790.12
         116.74          37.21        1063.92        -730.10        3062.18         405.93
          29.81           3.72        1407.24       -1164.52        3273.73         605.91
         237.55         183.39        1848.60       -1810.40        3090.83         390.39
         107.26         184.03        3552.65       -3353.56        3059.57         387.88
         370.17         165.68         751.27        -790.57        3053.42         316.50
         595.42          99.56         336.65        -543.97        3062.30         375.58
         303.17         158.99         404.16        -579.79        3263.44         579.65
         158.10         342.31         346.71        -479.99        3182.82         517.75
         811.85          18.17        2505.82       -2847.21        3061.33         353.65
         354.05          28.58        3612.24       -3713.91        3268.98         591.99
         587.36           5.30        1007.06       -1165.80        3116.04         489.20
         104.13         338.84        1123.78       -1164.07        3147.26         484.25
        1121.97         246.65        1713.76       -2599.34        3066.89         343.43
         639.85          38.67         957.60       -1493.72        3407.57         725.85
         425.44         110.13         106.44        -219.40        3127.33         492.26
         509.62          85.25          10.11        -577.00        3521.98         794.62
         233.57         686.32        2008.81       -2358.69        2979.96         331.40
         163.91         385.07        2341.01       -2639.96        3299.93         631.07
          97.44         238.25          13.46        -322.00        3522.81         778.14
         628.10         201.49         273.60        -700.15        3146.94         467.02
         268.06         160.15         162.59        -521.24        3480.40         735.04
         911.57         303.93        1269.20       -2135.68        3200.95         539.25
         189.38          14.12         783.88        -851.49        3414.06         748.98
         260.62         150.19         355.27        -627.12        3410.98         724.66
         740.30         160.14        1832.23       -2372.90        3190.17         565.64
        1567.16         302.67        1157.19       -2634.39        3157.32         505.47
          67.53         345.50          55.57         106.80        2974.54         251.81
         323.33         211.43        1124.23       -1325.17        3216.14         567.89
         494.11         402.05         861.93       -2041.00        3832.85         978.46
          41.33         542.39        1346.16       -2133.70        3753.78         932.94
         525.71          53.90         435.50        -612.51        3147.37         446.32
         327.49         105.96        3881.54       -3777.28        3012.26         292.48
         369.46           8.57         686.85        -426.03        2911.13         160.82
         819.60          95.60         667.15       -1270.20        3237.82         567.75
          22.43          98.03         997.97        -553.96        2985.48         296.95
          24.62         172.95        1720.90       -1392.29        3023.80         327.15
         916.64         152.42         473.54       -1085.10        3092.48         401.64
         773.44         452.82         666.17       -1535.46        3192.96         567.66
          47.52          24.08         689.16        -412.40        3201.60         555.66
          36.62         166.23         689.41        -398.46        3056.14         365.04
         148.16          50.40         287.90        -193.63        3257.14         628.30
        1828.87         383.61         631.41       -3465.25        4171.31        1137.14
           8.73         223.59        2180.02       -1828.60        2966.24         204.61
         301.43          96.27        1530.76       -1404.40        3025.89         309.60
         639.86           7.95         623.22       -1086.43        3365.35         684.01
         686.56          59.24          82.76        -396.79        3118.19         452.64
         695.61         197.77        3668.11       -4886.11        3874.57        1015.41
         362.57         136.67         693.18        -957.91        3315.44         626.85
          30.46         136.10        2060.93       -2134.15        3456.64         720.67
          97.08         556.45        3763.16       -3852.95        2986.23         280.73
          57.44         253.50         667.48        -727.51        3299.05         657.39
         252.63         119.96        4326.23       -4188.74        3039.90         376.22
         500.63         387.24         497.98       -1145.13        3309.25         639.85
          84.96          49.45         186.94         275.93        2952.68         295.64
         219.32          90.06        2191.70       -1955.05        3003.95         295.28
          94.89         140.69         929.79        -578.80        2963.38         242.36
         574.34          28.11         811.64       -1167.55        3303.43         626.93
         370.63         136.80        1416.58       -2036.92        3662.86         890.56
          28.53          45.38        1008.82        -533.04        3000.25         257.58
         112.82         271.93        1829.59       -1821.92        3157.54         485.52
         444.81         183.50          94.06        -322.11        3149.70         481.85
         726.57          35.36        1066.06       -1460.72        3182.70         509.34
         453.85          53.15          41.29          44.55        2957.14         215.10
          13.48         300.30        2108.15       -2562.26        3690.28         890.00
          16.72          98.88        1653.60       -1274.20        3054.95         373.44
        1703.28          98.29        2402.76       -3596.32        2941.93         176.41
         307.93          32.92        5091.48       -4823.08        2940.69         146.04
         386.60          49.08        2677.06       -2726.12        3163.33         486.17
          20.89          32.95        2995.46       -3181.96        3682.62         896.96
         364.20         283.77        2204.19       -2462.15        3159.95         528.01
        1467.36          29.45        1948.56       -2858.85        2963.44         187.62
         293.03         346.72        1147.73       -1331.89        3094.38         406.17
         158.36         402.01         328.28        -500.34        3161.64         493.95
         193.79         180.09         293.09        -141.46        3024.46         367.85
         216.50          52.77        2556.33       -2282.94        3007.31         258.76
         702.98          43.74        1349.37       -1481.57        2935.44         161.05
         216.35         481.43        2216.12       -2789.26        3425.31         739.19
         103.76         119.03        2617.60       -2532.94        3242.53         590.08
         244.97         202.80        1686.17       -1552.45        2968.48         350.83
         503.72         204.59        1211.58       -1663.05        3293.11         635.83
         466.12          53.55         599.28        -620.06        3051.05         373.37
         889.52          13.58        1315.96       -1603.16        2934.07         119.13
         757.11         323.96          64.93        -637.61        3041.56         345.78
          94.86         177.02        1674.22       -1352.25        2956.13         208.22
         724.37          19.05        3225.12       -3399.48        2980.88         244.95
          93.60         207.07        1227.84       -1115.98        3137.43         509.68
         653.22          56.49         724.81        -928.42        3043.86         353.95
          34.76         516.65         844.07        -913.09        3067.58         397.32
          75.17         213.08         450.06        -533.80        3345.44         674.94
         639.47         399.36          27.73        -689.75        3173.14         498.25
         471.42          23.29         794.79       -1478.29        3738.75         929.85
         118.49         246.02         758.73        -728.85        3155.56         476.21
         354.30          72.51        2084.79       -2911.69        3950.05        1028.68
         339.12          59.24         930.15       -1188.60        3410.04         715.12
         723.41         117.16          57.46        -505.72        3157.65         506.99
         274.88         147.00        2037.10       -1984.41        3075.39         402.80
         571.04          52.65        1641.48       -1671.20        2956.00         176.99
         742.93         142.97        1552.01       -2022.75        3134.79         469.38
         254.76          39.55         186.35          45.09        3024.19         278.30
         124.32         128.13        3817.13       -3498.02        2978.40         198.54
          10.64          33.25        1177.37       -1053.37        3382.07         704.95
         121.73          57.25        1074.76        -661.49        2957.70         224.69
         196.38          80.44        4179.95       -3863.12        2956.32         240.81
         245.19          94.39        2717.18       -2855.14        3348.35         647.78
        1475.47         354.85        1126.31       -2543.92        3137.27         477.36
         855.63          73.13        1520.19       -2141.18        3242.19         599.93
         648.24          33.16        2033.87       -2234.65        3069.34         378.82
         111.27         270.26        1734.65       -1520.99        2954.79         205.77
         194.06         145.48        3344.24       -3217.91        3084.07         422.82
         157.53         120.71         247.41         -54.13        3078.46         435.15
         724.46         221.05          21.08        -401.52        2984.86         279.66
         643.39         220.62        1347.69       -1796.35        3134.61         473.12
         525.21         151.03        1562.20       -1613.14        2924.66         120.69
         382.45         187.12         221.30        -230.54        2989.65         323.83
          83.61         394.64         830.48        -876.61        3117.83         457.15
          79.92         299.42         706.11        -927.68        3392.19         712.04
         530.98         128.10        1065.20       -1271.67        3097.35         413.75
         364.21          26.29        2096.52       -2266.76        3329.69         624.59
        2200.88          27.57         962.07       -2935.11        3294.54         632.56
         321.93         162.23        2884.53       -2897.71        3078.99         401.05
         193.43          62.98         907.58        -807.82        3193.78         513.26
         187.58         275.65        1458.56       -1452.78        3080.94         425.52
         374.80         441.04        2749.41       -3434.79        3419.51         717.22
         488.03          26.54         207.63        -486.02        3313.78         649.33
         343.59         234.51         220.80        -214.91        2965.97         235.98
         854.60         253.36        3368.73       -3837.24        2910.49         164.94
         192.26          64.55         146.61         -59.77        3206.31         580.70
         672.15          97.45        1649.09       -2354.11        3485.38         764.07
          88.27         267.05        2092.53       -2271.92        3374.03         699.49
          75.36          45.64         837.53        -350.92        2942.35         111.26
         199.52         179.34         498.68        -593.25        3265.66         610.76
         376.31         183.92        1187.30       -1235.89        3038.33         329.15
         604.17          70.25         430.21        -940.47        3385.79         678.33
          93.29         266.12        1851.17       -1812.06        3151.44         540.06
         337.28          39.30        2029.52       -1805.44        2949.29         166.69
          39.33         271.13        3322.45       -3097.25        3014.33         244.84
         657.20         353.83         781.74       -1445.59        3202.79         545.09
          74.92         102.30        1129.19        -854.07        3097.61         462.54
         320.45         235.91        1515.83       -1620.97        3098.74         406.16
         415.50          15.09         167.74          -9.94        2961.56         223.55
         519.39          87.67         411.44        -511.99        3043.44         360.28
         177.14         155.92        4715.39       -4515.86        3017.39         327.98
         288.80         136.52        1073.96       -2024.52        4075.20        1117.63
         361.15         175.95        2160.22       -2210.83        3063.46         387.18
         121.49          33.09        2328.82       -2032.88        3099.44         394.51
         972.51           6.94         803.02       -1339.30        3106.79         402.84
         862.96         522.83        1121.85       -2127.88        3170.20         495.98
         314.42         213.06        1321.66       -1304.26        3005.07         365.70
         610.50          38.83           0.15         -39.49        2939.97         273.07
         527.29         249.85        3910.75       -4493.82        3355.89         690.08
         409.71         133.24        1135.89       -1160.54        3031.66         296.26
          99.03          81.18         522.32        -230.75        3078.18         394.19
         280.63         141.72        1507.92       -1936.93        3556.61         804.37
         951.32          64.84        1973.95       -3367.50        3927.34        1042.75
         942.35          93.88        1033.64       -1464.48        2944.57         270.96
          48.52         400.75        5174.03       -5091.19        3017.83         309.96
         104.93         459.15        3119.71       -3318.31        3184.49         532.38
         169.02         158.04        2595.58       -2717.96        3345.27         678.29
        1019.57         118.66         222.15        -883.46        3073.06         454.70
         741.16         173.76        1983.90       -2628.17        3279.29         622.43
         351.69         106.24        1471.05       -1361.62        2982.61         285.35
         462.54         216.25        2927.29       -3365.95        3309.82         625.46
          59.41          19.51        1938.18       -1427.45        2960.29         255.11
         931.83         146.30        1265.11       -2090.05        3296.76         637.34
         473.61         174.46        1108.94       -1134.46        2927.39         122.26
         203.33         152.57        4007.06       -3845.49        3032.49         359.05
         462.69          91.50        4289.91       -5102.24        3808.09         998.16
         204.01          55.25        2549.56       -2276.55        3017.72         285.59
         240.31         150.70         150.51        -350.08        3358.51         678.56
         145.92          67.83        3150.42       -2848.92        3034.69         328.92
          34.44          58.74         459.11        -107.38        3105.06         435.46
         434.26         102.00        1263.11       -1549.46        3300.06         646.92
         168.67         149.42        2597.32       -2342.44        2976.98         264.92
          80.44         214.21        2436.26       -2229.24        3048.30         342.59
         784.72         273.73         660.76       -1293.98        3124.73         459.80
         298.21          55.12         526.80        -679.66        3349.50         680.71
         437.58          82.99         423.56        -362.68        2968.53         250.77
         111.68           2.92         442.19         -88.91        3082.08         412.25
         785.49         492.23         544.72       -1344.66        3072.17         416.64
         901.24         158.48         240.42        -771.07        3020.89         334.57
          74.22         252.96        1078.75        -969.67        3113.71         429.92
         254.70         428.47         661.43       -1350.02        3555.39         829.28
         398.17          75.48         320.78        -222.18        2977.70         263.02
         101.04           2.63          87.60         103.95        3254.74         635.97
         280.03         286.86        1673.39       -1644.71        2954.38         123.82
         387.99         132.32        1076.55       -1322.76        3275.87         594.20
         569.88         428.75        2837.81       -4114.59        3828.11         999.52
         363.18         220.91         888.30       -1042.46        3120.04         467.46
        1066.53         359.29        2381.95       -3424.37        3166.56         507.26
         265.53          48.80        3269.84       -3059.81        3025.60         363.10
         260.77          56.42        1002.33        -920.65        3151.09         531.07
         557.07         189.08        2082.75       -2486.04        3207.10         543.66
         512.43          55.23         268.83        -717.72        3431.19         727.90
           4.29         205.30        3967.16       -3604.51        2977.71         275.93
         214.27          41.27         271.50         -16.44        3039.37         344.49
         694.23           5.59        2459.06       -2975.29        3366.36         674.26
         200.73           7.49        1835.56       -1523.15        3029.34         350.67
         391.09          70.58        2191.26       -2170.90        3067.92         409.55
          26.65          42.99        1263.83        -834.68        3051.17         366.73
         443.80         401.83         119.27        -515.43        3100.48         437.18
         518.70         121.74         582.98        -832.06        3158.60         510.58
         229.87         475.40         405.31        -653.96        3093.35         432.87
          68.87          73.06        1414.25       -1362.27        3356.03         684.47
          78.03         106.47         651.67        -918.62        3632.42         884.38
         220.56         398.13         422.35       -1036.52        3545.44         814.36
         347.32         454.21        1485.28       -1659.15        2922.33         156.42
          64.01         114.36        4173.96       -3842.04        3039.66         392.46
         533.82         175.60        1323.37       -1511.04        3028.22         349.71
        1003.24         270.20        2297.84       -3201.83        3180.51         534.72
         723.20         397.94         935.85       -1551.03        3044.01         341.86
         382.37         323.10         421.03        -596.74        3020.20         290.52
        1120.62          72.30        3664.13       -4634.31        3327.20         656.88
         206.25          14.17         549.63        -388.65        3168.54         522.79
         398.43          22.92        1294.90       -1187.70        3021.41         352.03
         234.08          50.12        1439.42       -1231.94        3058.27         367.96
          96.70         272.28         110.77        -821.85        3892.06        1017.07
         521.21          70.40        1347.46       -1417.37        3028.27         307.20
         350.36         193.51        3094.34       -3161.91        3073.67         375.74
          22.77         399.52         718.39        -724.09        3133.36         489.80
          16.81         109.09         811.84        -447.71        3059.93         424.52
         216.51         458.97         268.59        -498.83        3104.73         447.32
         678.08         180.30         208.41        -539.81        3022.98         329.50
         140.85          57.69        1090.53        -793.28        3054.18         371.34
         864.30         203.49         860.14       -1591.52        3213.54         536.85
          38.22         110.34        1815.62       -1967.34        3553.10         817.90
         116.03          82.45         248.47          74.19        3028.83         351.07
         492.96          55.76        4548.10       -4469.28        2922.42          81.99
         172.62          74.73         834.06        -600.56        3069.12         439.05
         480.54         202.78         228.15        -480.42        3118.91         471.48
         134.56          23.11        3044.29       -2606.33        2954.34         235.36
         773.58          77.98          49.61        -542.21        3190.99         506.65
          42.08         101.41        2201.46       -2254.46        3459.46         772.83
          70.76           8.38         829.25        -373.68        3015.26         356.05
          25.04           2.96        1831.96       -1234.15        2924.16         133.26
          87.45         369.23         896.32       -1039.60        3236.56         606.40
         337.64         110.42          32.00          45.79        3024.13         293.88
         160.28          15.33        1115.67        -891.73        3150.42         502.45
          69.71         116.61        3775.53       -3394.06        2982.17         229.71
         294.11          15.92         955.83        -882.75        3166.85         490.05
          69.28         262.26        1586.98       -1679.12        3310.56         623.07
         182.45          50.79        2550.98       -2160.38        2926.14          54.06
         285.93         498.86        3368.39       -3731.65        3128.44         482.46
         386.63          76.08        1530.21       -2188.12        3745.14         941.78
         766.26         167.93         612.31       -1078.81        3082.25         410.63
          81.72          68.61        1587.03       -1273.36        3085.97         414.69
        1027.01         322.86        2009.04       -2899.58        3090.64         402.36
         565.13         155.20        1883.10       -2828.65        3775.17         949.69
         638.47         115.85         480.55       -2221.44        4536.54        1299.04
         454.06         795.28         790.47       -1623.68        3133.81         490.77
         920.34         118.06        1062.26       -1928.90        3378.19         688.88
         127.41          27.39        1924.06       -1493.13        2964.23         228.73
         729.10          35.78        4217.25       -4688.27        3256.09         581.41
         596.98          15.68        1553.96       -1694.60        3077.93         408.66
          64.22          54.70          70.06         389.90        2971.08         220.92
          39.53          56.97        4624.00       -4157.30        2986.78         288.98
         166.50         245.39        1299.47       -1246.45        3085.04         413.32
         207.11          45.43         529.26        -643.62        3411.78         744.38
         199.79          18.46        1399.97       -1274.51        3206.24         574.45
         613.78          17.43         301.03        -417.58        3035.29         378.55
         224.79          10.25        1149.56       -1502.24        3667.59         900.03
          81.27         161.18        2181.64       -1877.21        3003.07         258.03
         311.21         416.00        3209.30       -3496.13        3109.59         462.06
         227.63         140.91        1269.81       -1091.45        3003.07         341.51
         302.54         161.34         532.44        -555.23        3108.88         471.85
          92.00         194.59        3715.88       -3493.44        3040.91         360.29
         167.36         210.61          28.61         165.12        2978.27         262.21
          97.30         293.69         758.63        -729.44        3129.76         508.68
         541.08          83.61         376.26        -613.59        3162.62         521.38
         305.14          15.75        1335.73       -1247.40        3140.74         475.04
         266.81         191.70        1538.26       -1799.44        3352.63         680.51
         530.89         225.83        3063.07       -3676.55        3406.71         725.08
         207.21         117.88         660.10        -411.98        2976.76         290.06
         328.79         208.45        3412.19       -3691.46        3291.96         622.49
         194.85          12.71         334.96        -147.61        3155.04         436.33
        1389.78          32.35        1024.64       -1822.85        2926.05         149.34
         536.21          92.74        1316.73       -1350.31        2954.58         171.39
         813.09          17.80        1790.51       -2165.52        3094.08         437.37
          89.72         106.66        1017.44        -732.56        3068.69         382.64
          12.44          37.13        2882.94       -2348.75        2966.21         180.11
         216.02          82.15        1723.58       -1671.13        3199.35         540.06
         435.72           3.36         867.81        -744.69        2987.78         325.74
         137.60          36.92         938.64       -1229.53        3666.32         897.48
         732.85         326.62         149.63       -1033.79        3374.64         691.23
         374.63         104.10         414.76        -749.45        3405.92         723.12
         371.97         731.75         650.06       -1263.42        3059.61         442.70
