 # HCl ZPE restriction,  Energy (cm-1), speed (m/s)
 #HCl ZPE (DMC): 1483.743446, WWW ZPE (DMC): 15602.536472
 #E_given = DMC ZPE + 3550 =21233.1103893624.
 #Dvib = Evib - ZPE
 #D0 = E_given - Erot(W) - Erot(HWW) - Evib(W) + Evib(HWW) -E_COM,E_COM=0
 
     #Erot(HCl)     #Erot(WWW)     #Dvib(HCl)     #Dvib(WWW)             D0         #Speed
         482.24           7.83         551.17         290.89        2217.83         151.61
          40.27         342.53        1326.89       -1371.19        3211.45         648.93
         578.54          41.03        1547.44       -1056.70        2439.65         336.59
          95.99          38.03        1632.40        -785.07        2568.62         417.83
         430.41         193.31         578.35         138.57        2209.31         157.85
         751.21         814.25        1206.25       -2709.13        3487.37         727.85
         115.00          80.88         661.37          59.32        2633.39         434.47
          29.03         122.65        1111.43          80.51        2206.37         159.75
        1011.52         834.96         309.99       -1211.29        2604.77         429.14
         191.19         103.20        2276.01       -1237.87        2217.41         161.88
         394.60          56.16         840.16        -230.74        2489.78         368.93
         342.32         179.06          64.03         704.63        2259.93         203.14
         408.06         178.90         226.76         454.32        2281.91         253.75
         179.87          54.69        1386.90        -594.32        2522.82         387.96
         610.55         204.03         422.95          14.87        2297.58         252.54
         263.15         276.30         868.00        -205.10        2347.60         272.79
         142.79          22.17         552.74        -433.41        3265.67         680.92
         473.36          94.95         942.00        -285.56        2325.20         271.24
          81.05         176.33         133.72         604.02        2554.84         397.07
          76.02         131.32         979.32        -514.75        2878.05         539.98
         314.23         228.08         393.77           6.22        2607.65         430.45
         109.08         127.24          98.58         929.51        2285.58         234.67
         208.45         371.06         909.68        -292.50        2353.28         285.64
         102.34           8.57         684.55        -211.02        2965.53         566.16
          15.12          41.36        1057.84         200.02        2235.62         176.94
         194.92          31.07         451.75         492.28        2379.92         302.49
          17.92          44.26         882.67        -151.81        2756.93         492.67
         315.38          73.95         655.63        -223.19        2728.19         479.08
          27.05         234.47        1810.51        -930.23        2408.17         318.61
          32.60          13.81         392.62         830.85        2280.09         225.98
        1318.32         318.99        2054.95       -2654.66        2512.35         388.06
          71.72         163.32        1229.09        -327.85        2413.67         307.60
         170.01         378.15        1037.91        -264.69        2228.57         167.61
          26.49         753.81          76.11         130.94        2562.62         412.79
         235.50         158.59         545.79         203.51        2406.55         326.85
         480.52          67.60          96.07          78.70        2827.08         516.21
          29.04          30.48         626.81         612.99        2250.66         179.58
         127.38         947.16        1189.88       -1014.99        2300.54         235.86
          32.28         374.90        1282.68        -573.19        2433.30         344.10
           6.09         351.20         166.40         734.28        2292.00         263.02
          99.59         669.31        1548.00       -1184.30        2417.33         332.26
         153.57          82.47         215.56         612.26        2486.10         354.37
         432.60         512.21         268.40         -78.13        2414.87         324.09
         406.34           7.53         933.62        -584.41        2786.88         508.91
         493.31          49.95        1020.46        -782.75        2768.99         503.75
         465.26         411.17        1887.47       -2190.23        2976.29         577.45
          62.36         420.82        1186.60        -446.41        2326.59         250.76
         412.44         805.01         587.04        -492.30        2237.78         191.15
         409.45          38.10        1699.31        -952.19        2355.30         272.23
         569.46         258.56           5.14         398.18        2318.62         302.25
         148.60         103.51         448.61         330.56        2518.69         378.66
         388.40           1.08          45.94         891.74        2222.81         157.62
           2.30         117.30         802.99         151.08        2476.30         370.25
         992.50         369.82        1967.13       -2379.16        2599.65         431.41
        1348.10          62.70         456.43        -806.45        2489.15         375.65
          19.78         549.02         792.44        -192.92        2381.66         309.26
          81.81          65.09         155.28         809.38        2438.42         340.74
         116.39          85.35         654.49         436.71        2257.02         231.32
         267.41         141.31        1658.28       -1361.70        2844.65         535.83
          73.95         647.28        3287.17       -2862.73        2404.29         332.36
          92.34         128.64        1730.94        -580.24        2178.27         132.62
          97.85         445.41        1332.76        -550.71        2224.66         164.33
         812.20         259.24         227.73        -275.89        2526.67         377.64
         844.87          34.32         252.07         229.65        2189.06         106.40
         315.25         328.99         459.93          38.80        2407.00         321.62
         700.06         156.53         102.93         164.77        2425.66         344.63
         591.39         304.98         675.97        -630.91        2608.53         433.40
         109.10           0.24        1106.80        -157.24        2491.07         364.63
         275.78         540.29        2353.81       -1840.36        2220.45         203.96
           3.27         673.32         738.41        -113.59        2248.54         202.32
         173.07         155.16         369.51         430.71        2421.50         336.17
         268.86         153.30         407.33         396.62        2323.88         273.32
         127.41         134.24        1001.29          80.92        2206.13         128.98
          28.91         136.84         189.85         452.20        2742.15         481.57
         254.06         148.09         545.20         330.54        2272.09         229.08
         166.47         248.23         216.75          79.90        2838.61         516.51
         371.25         122.87         293.52          67.81        2694.51         478.05
         206.67          15.02         916.04         168.89        2243.35         191.66
         320.34         130.01         360.40         555.83        2183.37         119.10
         135.32          70.12         265.55         729.59        2349.39         292.07
         163.52          78.42         622.36         415.92        2269.75         272.35
          83.65         302.86        1628.09       -1147.58        2682.94         461.20
          94.55          39.25        1596.20        -989.32        2809.29         504.93
          35.55          72.34         784.41         181.96        2475.71         347.53
         149.67         197.79         971.82        -190.14        2420.81         320.79
         110.36         645.46         448.19        -349.19        2695.13         468.99
         823.41         184.32         479.01        -201.52        2264.73         237.52
          19.90          29.76         461.44         756.67        2282.20         243.21
          51.15         482.06         264.07         431.85        2320.81         298.19
         720.61         425.08         607.24        -814.90        2611.92         440.53
         362.84         258.49          60.55          28.80        2839.29         523.54
           8.68          88.99         894.22          44.91        2513.16         376.48
         285.66         139.23        1708.11        -969.00        2385.96         305.57
           5.69         176.64        1159.58        -156.76        2364.83         303.38
          47.59           2.28         671.84         -39.71        2867.98         534.23
         119.88          92.75         255.37         481.38        2600.57         426.57
         467.00         212.36        1295.72       -1858.26        3433.14         721.99
        1501.34         119.81         678.08       -1526.19        2776.93         502.68
        1011.86          75.80          33.87          16.59        2411.82         308.93
         161.23          42.13         583.11         352.47        2411.02         323.00
         150.77         373.61         744.52        -180.00        2461.07         351.86
         161.46          28.93         613.31         358.10        2388.17         322.98
         480.18         273.80        1058.89        -822.75        2559.84         398.34
           3.29         141.35         174.20        1030.74        2200.38         144.36
          94.97         175.73        1972.41        -904.29        2211.15         162.43
         703.28         144.07         399.58        -180.76        2483.79         370.08
         508.60           1.94        1976.50       -1448.68        2511.59         377.63
         347.78         182.55         152.87         572.98        2293.77         252.12
          53.80         281.53         662.01         -93.95        2646.58         440.60
         187.86         148.28        1640.89        -799.79        2372.73         296.02
         530.00         204.63        1830.78       -1304.06        2288.61         259.68
         273.73         226.71        1039.01        -460.40        2470.93         357.04
         129.44         357.06         485.84         303.15        2274.47         216.68
         305.05         416.90         840.96        -425.25        2412.30         323.76
         398.28          56.30         469.64         196.41        2429.33         327.75
          67.56           0.52         158.92         682.76        2640.22         437.36
          83.20         173.48         500.93         580.61        2211.75         166.47
         188.04          52.49         153.37         875.34        2280.72         218.23
         317.76         594.25          45.95         338.61        2253.38         195.23
          86.35         114.30         203.77         894.96        2250.57         204.85
         684.88         120.30         832.47        -419.29        2331.60         262.52
         677.29         104.00         417.32          80.50        2270.84         224.67
          90.97          44.79         561.50          45.95        2806.76         510.99
         340.75          48.64          87.45         776.02        2297.10         241.15
         992.22         106.14         342.30         -71.74        2181.04          93.77
         359.80          60.79        1129.29        -895.53        2895.60         541.91
         217.34          27.74         604.96         448.26        2251.65         181.75
         136.19         100.52        1662.70        -674.61        2325.17         266.83
          10.29          13.58         849.98         493.00        2183.09         123.58
         310.25          97.60         742.64        -104.70        2504.19         388.51
         362.35          60.83         369.83         412.22        2344.73         278.71
         140.94          54.73        1203.86        -270.54        2420.99         334.76
          45.81          37.49         795.72         104.86        2566.08         411.00
         591.42         591.42         166.94        -327.67        2527.86         382.26
          14.62         150.87         764.27        -543.37        3163.57         636.02
          54.55          76.21          62.57         740.70        2615.94         431.03
         217.47         422.06         179.31         450.20        2280.92         199.67
         113.95         283.63        1868.10       -1145.32        2429.61         324.06
         214.94          43.15          86.72         349.11        2856.06         525.39
          22.71         206.85        2270.78       -1258.70        2308.32         247.08
         122.95         207.91         215.18         461.47        2542.45         409.23
         285.10          21.46        1041.58        -272.34        2474.17         365.12
         361.32         190.35         200.99         561.11        2236.18         187.80
         526.36         361.13        1789.10       -1642.30        2515.67         381.93
          54.37         206.91         907.41         147.24        2234.03         179.96
         397.49          12.85         100.21         839.72        2199.70         129.28
         507.08          14.72        1682.82        -961.72        2307.07         269.46
         381.45         140.20         337.67         390.77        2299.84         280.50
         106.00         252.44         640.05         277.95        2273.50         237.38
         248.30         227.14         148.83         723.25        2202.45         155.58
         962.71         401.97         422.06        -555.74        2318.96         263.79
         401.13         297.77         310.05         265.56        2275.46         215.13
         149.96         398.02          32.79         187.20        2781.98         499.91
          15.12          61.79         336.07         883.97        2253.02         168.93
         142.72         181.83        2913.84       -1921.40        2232.96         177.06
         890.79          58.29         519.15        -228.23        2309.94         250.57
         220.37         509.82         865.15        -481.27        2435.89         346.77
         263.68         569.69         505.36        -508.80        2720.03         479.91
         136.14         248.95         148.36         263.65        2752.86         485.06
           6.90         153.17        3090.26       -1997.65        2297.28         221.51
          68.04         275.92        2403.54       -1943.52        2745.97         489.89
         198.77         260.95         713.27         153.89        2223.08         158.94
          73.81         249.59         689.54          89.89        2447.14         340.05
         269.38          98.55         676.64        -395.26        2900.67         542.48
         176.13         479.88         813.54       -2099.28        4179.69         899.82
          92.29          58.36        1268.31        -139.91        2270.92         228.12
          37.46          39.12          19.73         837.23        2616.43         428.04
         127.57         894.25          44.01        -415.00        2899.12         555.00
          30.72          15.84          97.67         861.66        2544.08         405.82
         335.96          11.20         487.99         494.77        2220.05         154.26
          15.13          94.58         255.20         496.20        2688.86         464.04
         296.99           3.53         129.73         899.53        2220.18         163.78
          95.93          68.49        1013.40         198.90        2173.26          93.12
         162.60         372.75         954.32        -888.94        2949.22         561.50
          51.51         158.72         115.47         393.69        2830.57         519.12
          92.99         280.94         571.04         290.47        2314.52         263.63
         234.42         931.29          61.44        -293.38        2616.17         437.73
         289.48         174.98        1981.52       -1157.65        2261.63         212.85
         416.03         128.84         556.50         219.15        2229.43         165.86
         240.81         278.71         347.76        -381.89        3064.57         600.75
         612.59          97.10         564.56          40.63        2235.09         176.46
          85.32         690.34        1148.59        -674.02        2299.73         234.94
          13.33          10.71         185.31        1089.56        2251.07         207.82
          96.62         234.07         777.43        -678.98        3120.82         629.10
         248.79         325.43         563.13          71.58        2341.03         266.97
         706.40         208.19        3192.75       -3064.74        2507.35         368.96
         129.39          47.25          61.59         608.19        2703.54         469.58
         470.00         129.70        2147.94       -1427.23        2229.55         189.64
         223.67         460.45         173.33         477.95        2214.56         174.30
         551.13          22.02         229.63         225.47        2521.70         374.70
          15.68         198.55        1308.97        -369.34        2396.09         318.04
         100.34          79.14        1287.84        -188.40        2271.05         231.54
          53.73         117.04         474.68         614.75        2289.78         235.62
         312.76         397.13        2398.74       -2042.20        2483.53         389.28
         381.39          80.43         897.20        -383.87        2574.80         416.22
         263.00          83.11        1806.36       -1161.73        2559.24         397.23
         338.14         304.39        1208.23       -1250.92        2950.13         558.51
          55.68           1.45        1377.31        -463.82        2579.35         416.14
         109.81         212.96         809.98        -993.33        3410.53         721.16
         425.53          15.05          56.09         663.05        2390.24         316.62
         344.70          95.42         630.06          74.86        2404.90         339.75
           1.14         234.08         948.75        -401.26        2767.26         504.08
          80.20          99.56        2052.67        -903.24        2220.76         163.01
         259.25         240.85         325.91         375.39        2348.53         298.94
         195.34         140.83        2320.87       -1519.36        2412.30         330.32
         380.12          84.44          31.80         735.59        2318.00         254.65
          54.42         111.22         385.48         194.51        2804.32         515.67
         856.64          32.34        2021.68       -2021.02        2660.32         447.34
         573.06           8.62        1015.20        -505.37        2458.46         351.20
         121.88          17.63         167.16        1053.63        2189.67         137.90
          11.45          99.93         246.91         230.76        2960.92         571.78
          83.08         312.73         331.32         639.57        2183.25         110.20
         317.08         223.98         978.35        -166.77        2197.33         129.51
         295.81          73.61         849.84          10.97        2319.74         256.04
         122.98         115.53        1731.15        -656.21        2236.52         195.45
         333.06         119.83        1383.77        -770.93        2484.24         351.27
           9.99         520.29        1057.35        -858.70        2821.02         524.29
         271.24         157.51         329.79         148.41        2643.02         439.49
          72.09         105.43        1109.92        -282.32        2544.82         405.72
         764.77          49.43         109.47         275.89        2350.40         282.58
         168.49         209.06         187.42         769.90        2215.12         150.32
          73.87         129.48         973.94          12.26        2360.43         277.74
          49.22         233.66         141.73         907.51        2217.84         168.80
          14.72         111.38        2536.82       -1441.80        2328.85         279.43
         437.22           3.34          50.82         878.79        2179.80         114.73
         299.05          67.27        1048.17        -117.88        2253.36         194.15
          95.84         161.68         417.92         454.59        2419.94         338.02
        1224.49          18.81         575.00        -903.69        2635.33         441.56
          66.03         756.03        1045.77        -703.35        2385.47         321.40
        1074.98         480.57        1606.96       -1867.91        2255.36         200.36
          45.70           7.11        1736.74        -485.73        2246.16         205.31
         193.71          21.90         125.68         948.93        2259.75         219.22
           7.18          70.26         409.46         398.36        2664.70         449.87
        1255.44         291.12         232.87        -443.12        2213.66         137.60
         585.98         186.21         847.56        -518.54        2448.76         347.55
         183.63         154.05         543.22         165.90        2503.16         370.93
          57.74         313.05          16.32         419.29        2743.56         483.67
         251.07           8.58         780.20         183.77        2326.33         272.30
         226.58         269.23         189.38         425.11        2439.67         307.42
         359.72         119.44         687.38         -93.86        2477.27         366.92
         129.42         202.38        1666.91        -738.73        2289.99         252.66
          57.38         199.67          43.75         931.00        2318.15         259.69
         504.54         156.56         201.96         -19.18        2706.08         477.75
         105.97         110.57         328.02         740.04        2265.36         205.25
         833.26         330.23         603.25        -566.75        2349.97         304.44
          19.79         130.68         467.31         637.52        2294.67         239.37
         277.55         164.58         174.52         537.91        2395.39         313.14
          51.91          29.05         558.13         412.57        2498.32         371.83
         688.72          13.05        1305.01        -677.81        2220.98         170.51
         105.25          64.05         711.58         418.86        2250.23         208.43
         416.36           1.89         863.00        -280.73        2549.46         398.34
         192.05          84.09         777.81          46.22        2449.77         360.89
          74.28          51.22         131.95        1041.71        2250.80         204.83
         537.73          21.14        1699.27        -915.03        2206.86         158.65
         601.62          35.71         314.38         347.58        2250.66         187.93
          42.01         299.71         354.57         399.67        2454.00         355.95
          22.72          21.18        1099.21         166.08        2240.76         171.51
         186.54          81.29         145.83         411.96        2724.33         471.37
         346.51         117.77         790.83         -71.44        2366.29         291.09
         594.03         109.45        1284.63        -624.00        2185.86         109.57
         456.74         383.39         274.84        -871.76        3306.75         679.00
         295.90          80.05        1746.45       -1064.94        2492.53         371.83
         106.63         254.43        1437.42        -678.27        2429.77         332.26
         318.37           8.08         175.41         656.83        2391.26         333.77
         417.16         247.65         419.06         -85.07        2551.16         400.72
         560.43          27.44         613.86          48.96        2299.26         239.85
         227.97          32.96        1312.90        -242.74        2218.88         143.83
         621.81         296.31          25.91        -385.74        2991.67         578.29
          37.06          65.40         280.94         848.29        2318.27         254.29
          26.41          49.95         244.18        1024.58        2204.85         145.21
         100.64          82.51         190.04         965.96        2210.80         156.17
         144.16          99.94         150.34         959.70        2195.83         132.98
         366.60         298.85        2135.03       -1764.43        2513.92         406.58
           7.79         182.95         799.95         -23.09        2582.36         438.07
         320.05          63.06        1109.09        -260.17        2317.93         232.08
         936.73         502.01         688.30        -959.40        2382.31         301.97
         205.05         142.63        1476.24        -491.41        2217.43         193.14
          34.37         178.14         840.82         232.03        2264.60         214.13
         147.25          41.34         434.09         686.40        2240.90         196.33
        1090.62          26.85         148.90          64.30        2219.30         165.94
         592.10         262.05         341.75        -178.37        2532.40         391.73
         587.28         134.74         731.00        -664.57        2761.51         491.12
          58.75          28.56         613.69        -135.98        2984.93         577.96
          35.18         108.16         189.08         805.78        2411.75         328.68
         790.43         164.31         440.28        -411.45        2566.38         404.14
          34.90          20.42         253.89         881.91        2358.85         264.88
         494.32         228.52        1187.94        -799.32        2438.51         337.24
         201.16         131.71           3.82         457.41        2755.86         485.31
         260.46          24.03         266.93         344.09        2654.44         448.80
          95.53         275.91         263.69         542.03        2372.79         301.21
         436.58          48.86           1.24         559.05        2504.22         366.79
          57.21          63.73         418.13         637.76        2373.12         311.05
          20.71          41.35         958.18         239.72        2290.01         225.31
         368.32          41.97         570.73         320.49        2248.46         197.85
         172.87         264.86         866.15        -383.26        2629.34         461.67
         108.82         223.04         145.34         794.68        2278.07         209.19
           6.56         389.63         648.77          -1.10        2506.10         366.04
          53.16           8.85        2780.98       -1484.55        2191.53         123.56
         101.04         248.11          25.03         774.77        2401.04         312.24
         495.84         418.91        2593.38       -2195.18        2237.01         206.03
         119.82         582.97         943.85        -346.10        2249.42         199.70
         173.88         285.97         369.50         -26.42        2747.03         490.54
          26.57         350.58          56.52         781.18        2335.12         253.14
         301.23         245.29         181.72         512.71        2309.01         253.26
         241.71          57.20         432.67         395.55        2422.84         339.02
         670.98         506.49        4701.17       -4574.05        2245.37         189.09
         169.41         126.76         688.91         -42.59        2607.48         435.13
          22.21         297.80        1012.28        -432.49        2650.15         446.00
         576.62           6.16          89.04         698.31        2179.83          98.83
          46.01         415.57         329.89        -411.76        3170.26         644.44
         299.42         177.31         990.38        -333.73        2416.58         332.21
         205.98         211.44         647.91          27.40        2457.21         354.43
          41.27         110.97         800.91          37.69        2559.14         408.19
         112.12         123.85        1808.28       -1146.69        2652.41         445.10
         262.95         208.69         799.52          70.20        2208.58         152.72
          89.54          82.93          16.61        1106.33        2254.54         206.93
          16.10         482.35        1856.78       -1499.28        2694.02         473.69
         546.32         113.05        1046.32        -333.07        2177.35         108.18
         108.00          38.01         822.18        -271.22        2853.00         522.55
         938.81         697.01        1794.50       -2271.13        2390.76         307.88
         104.82           3.87         210.79        1058.97        2171.52          92.96
         876.02          78.53         453.70        -449.78        2591.49         421.45
         298.12          93.85         362.87         188.14        2606.98         415.95
         382.72         572.94        2674.81       -2582.46        2501.95         392.20
          75.33          90.76         406.50         702.39        2274.98         238.46
          38.16         527.84         400.58          -8.93        2592.32         412.96
          75.78         221.42         789.33        -698.49        3161.93         635.68
          21.25          51.76         648.88         446.02        2382.05         298.51
         135.51           8.49          58.26        1165.10        2182.60          97.87
         423.21           3.27          49.11         804.37        2269.99         224.75
          15.80         196.57         121.02        1046.75        2169.84         120.25
         264.51         333.67         369.80         233.86        2348.11         291.92
         197.02         101.28         117.48         837.58        2296.58         267.25
         213.66         427.59         282.69         169.94        2456.07         354.27
         672.49         122.53         965.37        -572.01        2361.59         288.57
         117.72          84.89         774.28         321.61        2251.46         214.66
         345.78          54.86         128.58         814.94        2205.80         171.19
         333.31         235.05          65.92         532.23        2383.46         286.84
          57.39         257.33         816.64         -75.55        2494.17         378.30
          33.97         123.22         136.76         952.22        2303.77         238.70
          15.52          45.85         324.00         966.38        2198.20         151.59
          40.69         119.46         967.50         178.05        2244.24         226.16
         189.99         315.11         549.20         157.59        2338.07         274.25
         382.37          24.35         218.32         136.64        2788.28         504.05
         101.01           1.53         807.68          39.15        2600.58         423.22
         425.56         370.04        1121.24        -983.04        2616.16         437.83
         468.79         225.02         777.11         -97.99        2177.03         114.49
          83.78          81.40        2204.92       -1191.54        2371.41         301.01
          58.95          22.59         629.59         629.20        2209.63         143.43
         401.40          94.50          24.85         521.17        2508.03         385.16
         200.55          73.82         463.41         195.04        2617.13         430.00
         102.40          65.75        1246.60        -718.64        2853.83         528.37
         423.34         164.32         173.52         526.48        2262.31         209.30
          60.33         219.97          81.82         928.99        2258.82         213.21
         581.41         112.20         927.11        -294.40        2223.65         203.05
          70.41          37.79         978.86         108.88        2354.01         276.51
          63.22          88.74        1023.14          89.10        2285.76         217.45
         278.51          83.31        1241.02        -264.01        2211.12         153.23
         582.84          81.38          48.36         346.17        2491.20         371.40
         547.33          77.26        1499.36       -1379.62        2805.64         506.63
         954.29          58.67        1378.60       -1304.06        2462.45         346.90
         104.82          40.88         491.26         563.87        2349.14         290.76
           9.64         367.30         954.38         -83.17        2301.81         246.65
         312.59           3.21        1077.38        -407.23        2563.99         427.76
         140.47           7.74        1767.91       -1018.80        2652.63         451.45
         363.44         257.54         609.58        -160.77        2480.18         366.76
          41.06         126.21         357.19         752.18        2273.32         210.76
         169.79           9.26        1058.68         -47.24        2359.45         285.01
          78.11          34.56         833.17          31.67        2572.43         407.81
         333.47         375.26        1700.47       -1101.59        2242.37         198.35
         487.15          55.54        1221.76       -1185.52        2971.04         581.10
          74.08         112.84         384.22         776.77        2202.05         124.46
         258.87         439.98        1443.56       -1406.30        2813.85         523.02
          34.18         105.55        1131.95          90.07        2188.21         138.13
         295.48          37.76         514.43          92.68        2609.61         424.20
         108.28         402.35        2068.08       -1342.46        2313.70         281.06
          33.28          73.23        1011.88         221.28        2210.30         155.33
          37.45         135.35         330.63         507.67        2538.84         393.58
         109.58         113.64         386.79         208.70        2731.26         487.24
          57.25         332.75         201.06         716.02        2242.90         213.26
          97.91          62.78         553.32         215.18        2620.76         432.81
         312.23         360.00         388.70         229.45        2259.57         212.09
         313.65           6.72        1430.88        -861.02        2659.74         454.87
         240.05          89.98         661.73         329.38        2228.82         181.55
         242.65         147.81         280.00         110.96        2768.55         495.34
         246.15          17.45         153.07         724.53        2408.77         310.46
         422.19          34.77         431.90         360.70        2300.40         241.05
         102.46          54.83         226.38         377.37        2788.94         501.96
         368.12         463.16         272.87         -99.24        2545.05         418.82
         652.85         576.40         718.63        -601.76        2203.85         186.59
         297.63         326.54         128.11         236.89        2560.78         403.54
          60.20         661.75         560.37        -263.80        2531.44         397.69
          24.16          73.79         635.76         587.12        2229.13         181.74
         321.43         227.94         462.01        -239.09        2777.68         481.14
        1054.34          47.09           0.63         128.21        2319.69         255.51
         224.09         272.11         634.30          21.51        2397.97         316.90
         265.15         137.44         693.63          63.25        2390.49         308.21
          55.85          69.04         132.65        1017.00        2275.42         234.98
         304.59         119.17        1683.55       -1158.10        2600.76         422.71
          93.37         306.62        1780.11        -899.69        2269.55         217.88
         163.93          61.51        1787.52        -715.73        2252.74         210.34
         224.48          63.91        1004.63         -64.17        2321.10         261.95
        1171.05          91.46         287.67        -607.90        2607.67         425.99
          17.32         166.35         458.39         421.37        2486.53         353.69
         260.69         189.06         972.82        -880.82        3008.22         588.42
         735.30          34.05          35.93         252.54        2492.13         363.38
         399.06          63.17        2038.27       -1114.11        2163.55         143.40
          45.78         185.64         603.86         161.50        2553.19         397.22
           9.72          83.28        1197.25          -8.84        2268.55         218.08
         587.93         206.57         224.85          50.75        2479.85         357.19
         105.20          96.56         213.66         671.81        2462.72         359.98
         683.77         281.81         309.65          22.11        2252.61         216.51
          58.12         187.13        1032.68          -6.11        2278.15         211.94
          52.73         825.48          52.61         -32.50        2651.64         457.38
          61.90         108.92         624.02         172.29        2582.82         407.92
         304.40         125.01        1260.80       -1550.85        3410.59         705.03
          94.32          48.34        1696.63        -538.16        2248.82         206.34
         243.93         100.53          68.87         443.79        2692.84         456.92
         232.15          71.29        1356.60        -777.66        2667.57         457.51
         132.81          57.84          56.75        1065.72        2236.82         184.86
         581.96         690.56         191.79        -254.23        2339.88         270.80
          44.19          51.48        1229.59          -3.70        2228.40         188.80
           2.10          40.33         375.69         546.70        2585.16         414.70
         477.51          81.47         348.78         377.57        2264.62         204.41
         231.47          94.41          33.38         638.97        2551.74         409.21
         734.45         239.45         670.35        -436.09        2341.79         304.08
          11.85           8.30        1069.67        -267.83        2727.98         480.55
         329.81          11.91         844.49         136.02        2227.74         185.08
         289.46         203.27         226.17         337.10        2493.94         374.01
          62.18          12.02         259.85         786.03        2429.89         328.28
         116.57         232.38        1445.39       -1540.06        3295.68         686.09
          74.76          31.28          46.37         538.63        2858.91         536.89
         126.45          18.55        1249.99       -1067.81        3222.80         654.47
           3.12         173.38        1909.45       -1110.09        2574.12         404.70
         595.53         119.43         487.80         -22.21        2369.40         287.11
         195.45         339.32         529.59         288.50        2197.09         131.72
         107.82         502.07        1419.42        -899.99        2420.63         331.85
          59.95         113.56        1571.24        -448.06        2253.28         212.17
          71.19         207.47         206.72         641.19        2423.40         319.41
         280.79          13.08         769.72         114.66        2371.71         290.12
          52.57          30.12         498.96         756.44        2211.88         181.95
         307.77         209.95         942.68        -876.00        2965.56         561.03
          72.55         364.34         869.26        -238.43        2482.25         359.21
         295.60           5.40        1093.36        -186.50        2342.09         270.44
          41.80          35.06          40.74        1040.18        2392.18         310.19
          79.49         135.04         341.14         -96.44        3090.74         611.01
         497.44         573.94        3692.42       -3735.75        2521.90         389.62
         148.00         255.41        1502.75        -569.42        2213.23         184.74
         121.64           1.25         871.49         -83.49        2639.06         443.32
          12.70         625.52         838.80        -226.96        2299.90         248.80
         977.94           9.78        2322.86       -2077.76        2317.14         257.68
         317.24         393.34        1011.39        -682.06        2510.05         383.28
         177.19         293.99         871.04         -68.32        2276.06         231.02
         234.67         219.19        1341.80        -733.61        2487.90         362.94
         593.34         325.32        2220.43       -2011.77        2422.63         347.23
           3.63          12.16        1102.45        -301.90        2733.64         478.81
         142.26          37.63          74.66         983.00        2312.41         270.84
          51.17         405.29         957.84        -190.64        2326.31         260.28
          59.15         764.85          66.11         350.85        2309.01         242.26
         105.29         552.37         159.27          96.17        2636.86         448.09
          22.71          61.71         823.11         241.20        2401.24         304.06
        1410.59          16.32        1367.00       -1510.83        2266.87         221.43
         621.96         251.89         304.55        -280.11        2651.68         446.29
         230.47         132.58         979.23        -115.66        2323.34         253.49
         122.55          82.03        1374.77        -297.11        2267.74         230.73
          98.16         174.34        1267.57        -664.13        2674.03         453.11
         191.48          31.91         219.32         453.53        2653.72         447.71
         472.38          20.02         326.21         178.37        2552.98         420.07
          87.40          50.52          67.52         920.67        2423.85         330.40
          74.52         229.36         325.14         639.90        2281.05         232.21
         491.14         118.60          88.03        -464.83        3317.00         688.23
         262.05         428.22         153.11         419.94        2286.62         258.61
         159.11          34.58        1441.21        -498.43        2413.50         330.90
          41.81         171.24        1526.27        -458.78        2269.42         202.28
          24.99         736.42           6.46         451.02        2331.08         271.14
         163.55          49.31         219.97         607.66        2509.48         385.90
         185.10          48.30         122.35         814.87        2379.35         283.54
         171.87         263.69         487.77         181.60        2445.04         344.62
         209.30          51.37         142.77         824.77        2321.76         261.57
         290.18         466.05         264.75       -1026.76        3555.72         751.78
         231.22          14.17         929.68          57.74        2317.15         259.85
         223.15          95.33         826.35         171.52        2233.61         161.56
         314.20          11.23        2338.59       -1311.27        2197.21         143.18
         262.92         203.52         207.66         468.84        2407.02         317.96
         441.71         207.04         667.32        -131.93        2365.81         290.15
         255.43         615.73          12.18         252.12        2414.49         333.55
          73.23         158.45        1122.50         -49.21        2244.99         198.39
         521.45         255.36        3151.37       -2839.32        2461.09         358.12
         123.78          83.74         408.17          71.94        2862.33         524.88
         136.47          62.63          12.69         729.56        2608.61         433.87
         505.37         576.86         916.94        -790.54        2341.33         279.73
         404.72           5.32        1797.85        -870.84        2212.90         158.95
         633.29         275.78         671.41        -303.86        2273.32         225.73
         383.13         839.88        1437.14       -1615.20        2504.98         392.82
         231.27          14.79         346.43         526.25        2431.22         346.42
         356.45          91.43         375.19         449.42        2277.48         237.05
          75.04         258.26        2793.84       -2467.62        2890.44         542.90
         286.70          74.30         922.53        -540.24        2806.68         512.05
          56.63         523.80         534.07         -27.43        2462.89         342.22
           2.25         163.04        1468.24        -365.98        2282.41         224.35
         576.35         139.11        2111.03       -1454.73        2178.20         113.89
         591.63          22.24        2646.77       -2235.30        2524.63         402.02
         185.64         183.87         389.29         518.81        2272.36         212.44
          52.81         229.69         187.52         828.67        2251.28         207.85
          84.78          12.81         884.39         252.07        2315.91         249.23
         470.59         538.29         359.75        -257.91        2439.25         341.50
          32.96          43.45         237.35         822.02        2414.19         321.95
         547.74         318.82         664.58        -513.83        2532.64         384.09
         215.70          31.64         853.80        -299.01        2747.83         496.40
         169.86         137.78         454.94         464.92        2322.47         272.02
         673.04         107.91         428.71          55.66        2284.65         228.15
         322.26         239.38         274.37         129.12        2584.83         417.07
         636.52         149.65        1628.23       -1151.45        2287.03         201.78
         114.82         217.51         176.57         504.52        2536.55         399.38
         650.12          58.53        1207.78        -678.93        2312.47         242.63
         249.36          36.47         137.82         861.34        2264.96         198.23
          51.21          46.30         124.92         991.70        2335.83         269.54
          99.12          14.68         225.95         998.96        2211.24         179.54
         161.91         120.18          46.73         658.20        2562.95         394.81
         101.40         396.25         689.62          79.41        2283.27         230.26
         461.70          38.14        3877.55       -3114.40        2286.96         231.61
         360.38           3.68         731.99         262.08        2191.84         142.64
         108.49          87.78         646.19         505.66        2201.83         110.42
         138.02          22.97        4157.45       -3098.90        2330.42         241.27
         209.62          19.71        2565.46       -1567.98        2323.16         270.41
        1133.98          62.79         149.09        -256.02        2460.13         363.81
         389.46         238.32         629.14          53.80        2239.24         188.37
          62.28          70.60         643.72         570.18        2203.19         150.98
         153.57         149.12         142.59         807.88        2296.79         240.13
         289.05          63.03        1401.15        -653.40        2450.12         351.08
        1198.72         554.37         596.14       -1566.18        2766.91         499.30
          25.08         142.98        1237.80        -152.77        2296.89         237.63
         266.06          92.99        1346.31        -695.39        2539.99         393.47
         203.44          76.47         437.91         454.33        2377.83         302.63
         200.35         104.40         392.09         435.03        2418.11         346.56
         581.61         100.54         276.94         -57.11        2647.97         449.59
          47.66         274.53         859.56         -91.10        2459.32         352.01
           1.08         163.74         528.26          43.22        2813.63         523.21
         144.73         146.65         546.68         270.46        2441.44         347.57
         156.98          47.48        2219.04       -1124.28        2250.75         201.10
         350.80         221.26          13.59         708.17        2256.12         224.21
          45.11         137.33        1226.33        -348.57        2489.77         378.56
         221.71          17.65         389.00         173.71        2747.86         497.51
         115.15         168.87        1360.59        -960.31        2865.66         531.06
         246.20        1179.10         634.98       -1675.43        3165.11         646.51
         110.79         251.60         431.15         557.84        2198.58         135.34
         679.07           5.62         932.79        -330.74        2263.22         203.60
         382.53         263.39        1075.44        -621.25        2449.85         339.89
          35.30         539.99         180.59         -19.67        2813.75         506.94
         148.24         439.24          47.23         634.48        2280.78         240.65
          99.10         242.04        2265.45       -1539.07        2482.44         355.42
         456.91         129.82         307.68         442.45        2213.10         169.25
         946.67          80.23        2199.99       -1987.92        2310.99         258.29
         202.80           6.85         271.09       -1654.57        4723.78        1010.66
         166.55         659.25         189.80         166.53        2367.83         300.69
         211.16         359.66         859.08        -474.88        2594.94         427.89
         266.45          37.39         430.61         421.81        2393.71         309.55
         140.84         109.26        3200.20       -2309.62        2409.29         330.77
          44.33          49.50         295.93         759.05        2401.13         302.63
          16.72          48.18         375.76         902.26        2207.04         137.77
          27.41          15.25        1380.91       -1226.13        3352.52         691.96
         434.61          42.47         197.63         412.09        2463.16         364.23
         311.89         384.18        1586.62       -1076.02        2343.28         285.20
          33.15          10.24          62.91        1040.87        2402.79         316.52
         340.52          29.72        1129.93       -1247.54        3297.33         684.48
         189.33           3.02          69.79         937.68        2350.12         277.49
         744.90          50.56         158.55        -250.51        2846.45         525.64
         144.81         444.44         156.78          70.19        2733.75         478.22
         313.26         147.78         715.98          99.95        2273.00         210.62
         272.09         120.96         207.95         618.51        2330.46         252.05
         290.74         109.15        3542.66       -3072.78        2680.20         468.25
        1061.26         176.06         652.41        -589.30        2249.52         210.45
         626.21           5.14         189.94         263.80        2464.88         368.79
           9.61          11.78         127.28         787.54        2613.74         427.10
         268.85           8.31        1660.29        -713.60        2326.11         266.36
         189.82          81.31          73.10         874.21        2331.54         269.67
         445.71         204.91        1793.24       -1355.43        2461.54         367.93
          85.63         216.35        2724.48       -1785.01        2308.49         259.88
         590.27          53.10         231.51         309.65        2365.45         298.14
         759.13          32.64         432.54        -100.51        2426.17         323.01
         159.70         666.82        1802.48       -1356.36        2277.32         224.78
         393.87         299.82        1700.84       -1048.73        2204.18         161.61
          19.64          19.83        2469.32       -1262.38        2303.56         225.49
         442.85          13.80        1218.17        -329.27        2204.40         156.11
          29.14         205.69         454.07         321.14        2539.91         396.13
          49.23         422.27         533.96        -140.34        2684.83         459.42
         872.24         316.54         296.59        -238.32        2302.90         248.82
         771.40         170.51        1021.79        -792.31        2378.58         306.74
         436.41         203.81         150.97         100.17        2658.61         463.59
         165.25         127.19         129.70         817.98        2309.84         239.80
         110.55         517.06        1596.72        -986.00        2311.64         220.78
         284.24           0.65         201.80         728.69        2334.58         284.75
          49.18          14.21         141.91        1123.30        2221.37         188.93
          62.87         203.23         853.73        -924.99        3355.12         690.55
         377.68         422.13         217.30         218.20        2314.66         268.37
         142.01         310.14         606.00        -209.19        2700.99         470.31
         219.01         351.30         145.73         489.94        2343.98         276.17
         225.18         238.02         423.44         463.65        2199.68         174.45
         170.75         131.35        2070.26       -1091.00        2268.61         202.17
           2.35         352.49         956.98        -717.38        2955.53         559.61
         299.62          12.38        1275.33       -1157.53        3120.18         633.97
         262.97         146.42         486.52         348.99        2305.05         244.13
         167.20          58.94         256.21         645.58        2422.03         349.07
          80.09          93.97          85.69        1083.40        2206.80         147.89
         216.34          93.03         459.74         460.49        2320.37         250.43
         499.34         124.15          60.73         340.64        2525.11         399.87
         976.05          36.90         606.72       -1837.47        3767.73         815.03
         112.92         205.90         423.96          29.14        2778.02         497.56
         512.41         207.55         129.56         117.08        2583.36         427.56
         108.13         253.12         125.74         137.26        2925.70         556.18
           5.54         171.02        3379.50       -2203.45        2197.37         153.56
         107.62         205.29        1119.65        -672.13        2789.54         512.77
          37.23         189.86         301.32         558.82        2462.73         340.25
        1005.25          55.72        1319.11       -1037.07        2206.93         182.25
         283.77          43.56        1504.43        -607.17        2325.38         251.32
         413.58         262.92        1599.24       -1058.57        2332.78         280.19
         173.22         835.16         558.27        -535.23        2518.54         376.34
          94.54         113.74        3420.56       -2263.71        2184.85         133.75
         487.40         820.29         542.46        -685.52        2385.33         317.03
          60.15          18.64         248.78         665.70        2556.69         387.57
           4.11         106.08        1373.85        -186.13        2252.06         172.50
         243.52          36.21         894.24          53.38        2322.60         275.56
           6.75          94.63         119.18        1038.87        2290.54         235.63
         322.44         107.18         222.76         544.98        2352.62         297.15
         263.05          84.92         964.75        -267.84        2505.07         371.54
        1004.23         213.36         125.76        -319.52        2526.14         396.41
         124.67          88.32        1005.53        -333.58        2665.00         462.86
          51.42          50.14         607.02         483.98        2357.37         309.70
          87.65          66.86         539.24         630.68        2225.55         202.20
         364.55         137.79        2043.63       -1318.17        2322.17         265.76
         885.15         511.67        1306.32       -1451.23        2298.04         260.54
         133.92         193.94         511.12        -225.78        2936.79         556.30
          80.59         838.57        1174.63        -991.40        2447.58         346.84
          37.06          83.39         492.80         418.81        2517.89         381.17
          63.83          65.49          93.25         871.13        2456.24         360.41
         233.10         126.81        1156.52        -601.27        2634.79         434.18
         204.62         109.04         142.50         178.52        2915.29         559.50
         115.83          18.40         382.31         767.53        2265.90         216.96
          20.10          19.86         908.57         209.38        2392.04         314.24
         261.34           0.87         129.97         759.63        2398.15         312.98
         347.32         326.59         707.36        -392.42        2561.10         401.49
          59.86         165.96        1310.05        -335.84        2349.95         280.71
         654.99         127.80        1205.39        -792.37        2354.16         298.51
         324.30          41.83         520.28         467.94        2195.60         150.88
          42.65         111.65        1822.60        -737.02        2310.09         243.64
         173.43          67.39         621.64          33.55        2653.95         448.66
          83.20         109.95        1198.67        -164.45        2322.58         277.67
         355.37           9.05         369.59         516.73        2299.22         261.59
         218.12         378.78        1559.06        -915.99        2309.99         249.67
         210.78         628.43        1126.17        -938.85        2523.42         395.46
          14.82         186.10         525.84         602.45        2220.75         191.46
         130.75          40.07         304.59         837.60        2236.97         191.63
          47.96         123.98         986.02        -490.51        2882.50         538.70
          42.55         119.02         204.22         619.83        2564.34         406.20
         133.64          24.48        3588.15       -2960.08        2763.76         492.63
          42.46          22.95        1025.24         156.49        2302.82         236.64
         145.15         387.29         507.26         230.23        2280.04         228.55
         269.62          44.56        1045.64         -51.13        2241.25         190.40
        1152.82         596.61         386.79        -924.97        2338.69         280.68
         362.92          28.14         142.14         737.82        2278.92         216.26
         150.69          13.22         182.08         979.43        2224.55         155.27
         339.67          62.85         173.79         721.20        2252.46         215.34
          42.14         216.62         827.12        -232.77        2696.85         470.87
          46.70         258.34        2302.03       -1644.31        2587.21         428.71
         316.84         779.32          36.73         -42.69        2459.77         375.06
         110.61         108.04         175.20         650.49        2505.62         366.82
          91.07         682.81          84.06         354.19        2337.84         261.88
           9.28         129.32        2020.37        -883.32        2274.31         217.53
         135.57          53.28        1431.93       -1280.69        3209.85         650.17
         106.97         561.16        1064.29        -783.55        2601.08         426.15
         260.75          26.46         336.90         542.35        2383.52         309.35
         670.06          62.87         419.69          33.13        2364.21         288.89
         363.97         211.47        3359.28       -2751.70        2366.95         302.02
         210.42          47.57           4.52         982.44        2305.00         238.36
         808.09         688.69        1267.76       -1566.78        2352.18         295.75
          53.34         611.26         465.33          77.90        2342.14         265.85
         131.61          14.33         316.73         708.15        2379.15         302.65
          50.35         476.54         581.31         220.81        2220.94         165.41
          68.51          17.94        1100.50         120.28        2242.72         161.59
         747.37          37.45        2244.06       -1788.69        2309.78         245.34
          59.79         536.96         625.19        -253.37        2581.38         409.65
          44.33          22.91         401.72         363.24        2717.75         475.89
         626.65           2.39         633.37          50.15        2237.40         185.55
         195.23         221.86        2031.34       -1187.02        2288.55         211.73
          22.97         135.16         269.24         867.48        2255.13         203.11
          97.33         178.44         542.81         350.07        2381.30         290.89
         359.36         162.91         159.90         599.30        2268.50         215.62
          19.44         415.53         849.79        -903.99        3169.18         637.53
           9.52         130.86          14.86         937.46        2457.26         352.09
          39.14          43.21         183.60        1018.93        2265.08         225.02
         247.74          94.75         953.00        -530.99        2785.48         495.46
          22.40          72.48        1622.71        -434.65        2267.03         188.30
         956.78         107.36        2612.73       -2628.89        2501.98         382.66
         138.02         116.76        1384.02       -1091.47        3002.64         580.00
          83.37         167.32         112.65         773.94        2412.68         325.46
         608.29         135.43         222.29         120.24        2463.71         358.66
         246.50         307.06          15.61         739.57        2241.23         180.81
          21.52         228.71         971.08         -20.57        2349.23         277.83
          39.34          84.10        1049.50          89.20        2287.81         233.85
         199.35         130.57        1093.56        -190.28        2316.76         262.85
         176.30          74.70         444.11         392.42        2462.42         349.98
          68.33          24.93        2570.66       -1454.00        2340.05         292.16
        1252.99          46.14         190.79        -374.52        2434.55         323.33
          84.86         348.70        1048.79        -376.49        2444.09         343.49
         219.58         228.66         292.91          18.34        2790.48         500.24
         135.72         748.79          79.45        -309.02        2895.03         545.75
         113.61          82.63        1952.58        -825.23        2226.37         152.19
         365.38         507.51         943.47        -791.76        2525.36         382.06
         613.33         352.47        1172.84       -1054.01        2465.30         362.67
         183.85          30.68          34.09         909.64        2391.68         303.48
         104.99         338.85        1310.03       -1276.83        3072.90         605.95
         341.31          90.68          58.74        -241.44        3300.68         676.61
          24.85          94.82         578.19         209.06        2643.02         447.37
         159.46         124.76          56.78         827.80        2381.17         298.68
          40.09          12.75        1107.90        -146.78        2535.99         386.67
         435.77         100.20         677.74         149.64        2186.61          96.56
         150.35         208.13         132.41         624.67        2434.41         345.78
         550.90          77.00         944.41        -907.52        2885.15         537.72
          71.63         169.54         400.05         617.50        2291.23         249.25
          72.48          38.92        1679.46        -624.68        2383.78         307.83
         224.59         241.95        1597.15        -798.04        2284.32         242.93
           1.32          70.85           0.20        1166.40        2311.17         248.58
         274.96         126.98        2811.82       -2042.75        2378.96         311.94
         823.55         158.58          33.52         173.50        2360.81         293.39
          13.93         252.13          19.05        1058.53        2206.34         144.65
         130.06         385.25        1867.55       -1066.29        2233.39         185.71
          90.54         113.43         395.03         -43.06        2994.02         577.44
         237.19          53.11         157.84         828.72        2273.10         220.60
         337.69          71.73         900.41        -114.59        2354.72         289.73
         153.86          83.49         161.56         857.94        2293.13         262.04
         163.43         158.88          55.02         460.58        2712.06         483.81
         622.10          81.42         252.25         295.42        2298.77         245.19
         348.87         184.79         499.45         200.68        2316.15         245.48
         244.30           4.74           0.39        1040.37        2260.17         201.18
          15.23           6.89         801.13         320.01        2406.68         302.96
         350.22          28.94         906.10          11.19        2253.52         209.83
         601.17          73.18        1407.35       -1139.27        2607.54         412.68
         130.84         107.48         790.82         -78.64        2599.47         419.52
         249.86          22.66        1121.80        -296.25        2451.88         306.66
          55.25         252.15         393.19         593.70        2255.69         207.85
           9.37         376.92         911.51        -229.72        2481.90         363.69
         294.72         418.32        1165.26        -709.35        2381.01         297.20
          23.98          78.67         666.78         489.16        2291.38         236.92
         576.02         305.10         606.85        -401.50        2463.49         351.41
          32.73         406.43        1157.59        -732.98        2686.20         462.20
         411.36          96.32         147.51         572.86        2321.91         276.87
         426.72         131.14         281.38         248.83        2461.89         342.89
         965.73          29.69        1807.78       -1964.20        2710.95         480.93
         596.86         376.01        1010.90        -940.88        2507.05         378.92
         109.22         188.90        2713.22       -1757.05        2295.66         239.93
         931.90         160.84        2338.30       -2531.41        2650.33         447.85
         106.67          73.03         837.70         297.32        2235.24         179.38
          60.94         403.37        2955.40       -2592.82        2723.08         488.33
         357.71         713.30        2255.20       -2155.27        2379.02         312.56
         522.45          25.86        1222.68        -929.85        2708.81         471.77
          84.50         198.22        2193.75       -1225.25        2298.74         255.54
          89.46         170.62         388.63         698.94        2202.30         146.27
          21.80          27.63        1881.20        -821.28        2440.62         329.81
         773.46         110.11        1233.18        -865.05        2298.26         239.75
         347.74         214.74         719.75        -358.35        2626.07         437.00
         511.08          25.33         175.08        -149.83        2988.31         572.84
         188.23          27.05         509.06         470.56        2355.08         273.66
         157.32         302.66        1416.39        -830.27        2503.86         374.57
         150.64         209.71         457.49         503.63        2228.50         157.18
         269.06          60.63         946.51        -362.26        2636.01         444.82
         184.88         425.29          29.75         481.03        2429.00         334.12
         251.37         101.01         141.97         827.19        2228.41         179.27
          42.66         128.75          49.81         682.16        2646.59         433.63
         330.30         266.80         590.64         -44.46        2406.69         312.44
         378.66          44.46         658.40          53.77        2414.69         313.46
         421.06         181.75          65.13          88.83        2793.20         500.30
         262.63         111.73         340.88         567.36        2267.35         250.26
          95.06          76.92        1521.25        -490.49        2347.22         261.76
         384.15         347.18        1745.26       -1459.58        2532.95         392.34
         669.38          61.43         205.40        -109.89        2723.63         472.37
         146.55         390.82          19.98        -387.89        3380.50         699.80
          36.65          18.16         645.15         342.52        2507.51         379.96
         428.40         139.58          39.32         466.31        2476.35         357.70
         447.16         326.42          40.85         505.30        2230.22         152.84
         150.41         166.69        1501.79       -1055.51        2786.58         511.46
          11.77           2.05        1557.53        -335.25        2313.86         247.09
         372.44         328.29         258.82         216.19        2374.22         309.03
         209.75         222.00         520.57         378.01        2219.63         165.60
          42.85         130.59         199.26         780.87        2396.40         320.09
          78.94          80.08         301.13         871.26        2218.58         144.66
         358.27         284.99        1035.64        -961.98        2833.05         520.25
         332.25          20.69         158.36         143.11        2895.54         548.19
         352.27         156.36        2899.75       -2671.49        2813.06         506.73
         148.89         171.94        1117.26        -240.53        2352.40         291.37
         313.62         127.60         926.71        -186.87        2368.89         303.07
         621.87          13.31         146.67         535.62        2232.49         217.89
         257.60          57.90         381.59         623.01        2229.85         161.16
         241.78         476.23         492.87        -170.66        2509.73         381.10
         326.40          19.71        1107.79        -218.77        2314.84         246.18
           4.18          36.73        2750.78       -1472.33        2230.61         188.39
         574.90         322.90         266.83         -95.72        2481.04         352.37
          51.25          84.15        3014.29       -2349.25        2749.52         495.15
         195.01         109.32        1220.30        -375.04        2400.38         331.46
         100.02         238.77         542.58          47.68        2620.92         436.78
           1.58          23.08         766.95         237.49        2520.87         387.38
         244.20          41.41        1949.94        -893.43        2207.85         154.69
          11.20           1.09         490.78         832.34        2214.54         178.00
         894.59          97.09         472.89        -164.18        2249.58         199.29
         175.46          34.21        2029.92        -975.29        2285.67         230.26
         381.10          54.38         332.49         215.41        2566.59         406.08
         915.23         191.24           9.92         -12.94        2446.52         343.36
         426.79         144.49         197.68         353.48        2427.52         335.23
         111.75          77.83         515.91         627.55        2216.92         150.28
         198.33         105.95        1216.90        -392.60        2421.40         323.35
         274.21           7.07        1222.80        -161.67        2207.54         160.48
         197.30          21.01         158.96         958.21        2214.50         152.14
         450.09         169.84          28.26         226.00        2675.79         458.21
         532.40         105.44          38.84         580.32        2292.97         252.61
         776.13         122.12        3129.76       -3063.40        2585.34         425.90
          35.19         219.23         249.04         461.63        2584.87         411.98
         124.82         442.69        1525.57        -851.45        2308.31         245.83
         247.29          41.88        3687.99       -2630.05        2202.87         169.94
         313.49         478.32         782.26        -407.53        2383.41         290.86
         296.16         183.08         974.10        -109.59        2206.20         168.74
         294.13         372.65         635.27        -529.44        2777.36         500.39
         114.47         202.00          97.70         921.46        2214.33         218.92
         318.23          76.71         442.57         489.38        2223.08         165.08
         283.03         131.64         371.82         425.35        2338.14         265.89
          57.02          83.59         591.77         412.01        2405.57         309.99
          23.66         253.97         240.10         688.53        2343.70         270.95
         490.17         106.18        2244.68       -2331.66        3040.60         593.65
         393.03         185.53        1402.17        -622.62        2191.87         130.85
         352.63          19.09        3090.95       -2178.06        2265.35         205.35
         387.43         162.15        2978.35       -3702.89        3724.92         783.80
         379.68         170.17         835.14        -145.78        2310.73         253.41
         807.91          80.60        1452.72       -1241.41        2450.14         346.83
         310.95         107.93         918.30          -3.02        2215.79         193.30
         552.78         228.86         341.70          17.90        2408.71         314.37
         128.62         133.10         687.37         295.99        2304.87         251.67
         359.63          62.08         667.07         241.19        2220.01         157.84
         995.00         535.71          51.10        -302.11        2270.27         193.22
          21.83         602.88        2653.28       -2201.49        2473.47         337.07
         154.54          71.76        1120.95        -360.46        2563.19         394.66
         568.00          98.27        1688.95       -1030.34        2225.08         165.30
          28.69         324.00        1011.31        -104.07        2290.03         218.85
         177.41         335.52         424.33         -21.78        2634.48         438.23
          99.19           3.65          99.70        1168.60        2178.83         103.75
         194.43          59.03         156.28         847.30        2292.92         237.69
         372.42          39.18        1031.56        -404.09        2510.89         379.17
         198.84          53.08         180.74         535.58        2581.73         411.22
         280.59         546.60         304.44         -15.00        2433.33         329.64
         433.25         138.66        1578.76        -797.33        2196.59         186.90
          85.28         304.89        1345.85        -805.97        2619.91         433.42
         144.55          81.71         619.20         291.38        2413.11         321.16
         637.77         345.69        1256.28       -2114.21        3424.42         717.80
         812.60         155.82         309.75          14.61        2257.19         181.45
         409.71          10.62        2233.55       -1679.82        2575.90         420.31
         103.00          12.35        1440.73        -280.32        2274.20         225.16
         140.01         288.20         603.45        -132.61        2650.91         442.69
          42.67         189.99         606.62         179.13        2531.55         383.82
         274.47          27.12         236.06         824.50        2187.80         100.92
          37.70         305.63          82.22         655.70        2468.71         345.60
         251.32          47.07         362.04         622.38        2267.15         213.13
         162.85         190.14         243.61         353.87        2599.50         424.38
         206.87          12.92         167.98         500.88        2661.30         456.61
         152.47          63.48        1244.97        -249.91        2338.96         282.66
          33.51          77.98          27.05        1122.95        2288.47         260.70
         581.42         243.59         624.96        -233.37        2333.36         276.45
         403.51         284.92        1481.46       -1059.08        2439.14         340.68
         312.91         251.97         674.91        -153.07        2463.22         357.11
         316.74         882.92        1244.60       -1448.81        2554.50         410.55
          80.29          92.57         204.15         743.19        2429.77         325.57
         387.64          42.79         449.66         412.88        2257.01         188.85
         333.65         179.99        1513.82       -1097.51        2620.02         424.04
         276.60         287.22         188.77         485.47        2311.89         250.73
          36.81          32.54        1144.84        -202.42        2538.19         392.97
         466.53          73.02         117.17        -607.29        3500.53         728.41
         345.93         357.18         647.56        -268.77        2468.07         363.10
