 #HCl ZPE (DMC): 1483.743446, WWW ZPE (DMC): 15602.536472
 #E_given = DMC ZPE + 3550 =21233.1103893624.
 #Dvib = Evib - ZPE
 #D0 = E_given - Erot(W) - Erot(HWW) - Evib(W) + Evib(HWW) -E_COM,E_COM=0
 
     #Erot(HCl)     #Erot(WWW)     #Dvib(HCl)     #Dvib(WWW)             D0         #Speed
         194.92          31.07         451.75         492.28        2379.92         302.49
         148.60         103.51         448.61         330.56        2518.69         378.66
         173.07         155.16         369.51         430.71        2421.50         336.17
         254.06         148.09         545.20         330.54        2272.09         229.08
         206.67          15.02         916.04         168.89        2243.35         191.66
         161.23          42.13         583.11         352.47        2411.02         323.00
         188.04          52.49         153.37         875.34        2280.72         218.23
         217.34          27.74         604.96         448.26        2251.65         181.75
         217.47         422.06         179.31         450.20        2280.92         199.67
         214.94          43.15          86.72         349.11        2856.06         525.39
         149.96         398.02          32.79         187.20        2781.98         499.91
         198.77         260.95         713.27         153.89        2223.08         158.94
         248.79         325.43         563.13          71.58        2341.03         266.97
         223.67         460.45         173.33         477.95        2214.56         174.30
         295.81          73.61         849.84          10.97        2319.74         256.04
         168.49         209.06         187.42         769.90        2215.12         150.32
         193.71          21.90         125.68         948.93        2259.75         219.22
         183.63         154.05         543.22         165.90        2503.16         370.93
         277.55         164.58         174.52         537.91        2395.39         313.14
         192.05          84.09         777.81          46.22        2449.77         360.89
         147.25          41.34         434.09         686.40        2240.90         196.33
         201.16         131.71           3.82         457.41        2755.86         485.31
         205.98         211.44         647.91          27.40        2457.21         354.43
         262.95         208.69         799.52          70.20        2208.58         152.72
         298.12          93.85         362.87         188.14        2606.98         415.95
         197.02         101.28         117.48         837.58        2296.58         267.25
         213.66         427.59         282.69         169.94        2456.07         354.27
         189.99         315.11         549.20         157.59        2338.07         274.25
         200.55          73.82         463.41         195.04        2617.13         430.00
         246.15          17.45         153.07         724.53        2408.77         310.46
         231.47          94.41          33.38         638.97        2551.74         409.21
         195.45         339.32         529.59         288.50        2197.09         131.72
         142.26          37.63          74.66         983.00        2312.41         270.84
         191.48          31.91         219.32         453.53        2653.72         447.71
         163.55          49.31         219.97         607.66        2509.48         385.90
         185.10          48.30         122.35         814.87        2379.35         283.54
         171.87         263.69         487.77         181.60        2445.04         344.62
         209.30          51.37         142.77         824.77        2321.76         261.57
         231.22          14.17         929.68          57.74        2317.15         259.85
         223.15          95.33         826.35         171.52        2233.61         161.56
         262.92         203.52         207.66         468.84        2407.02         317.96
         255.43         615.73          12.18         252.12        2414.49         333.55
         231.27          14.79         346.43         526.25        2431.22         346.42
         185.64         183.87         389.29         518.81        2272.36         212.44
         169.86         137.78         454.94         464.92        2322.47         272.02
         203.44          76.47         437.91         454.33        2377.83         302.63
         200.35         104.40         392.09         435.03        2418.11         346.56
         144.73         146.65         546.68         270.46        2441.44         347.57
         221.71          17.65         389.00         173.71        2747.86         497.51
         166.55         659.25         189.80         166.53        2367.83         300.69
         266.45          37.39         430.61         421.81        2393.71         309.55
         189.33           3.02          69.79         937.68        2350.12         277.49
         189.82          81.31          73.10         874.21        2331.54         269.67
         165.25         127.19         129.70         817.98        2309.84         239.80
         219.01         351.30         145.73         489.94        2343.98         276.17
         225.18         238.02         423.44         463.65        2199.68         174.45
         204.62         109.04         142.50         178.52        2915.29         559.50
         173.43          67.39         621.64          33.55        2653.95         448.66
         150.69          13.22         182.08         979.43        2224.55         155.27
         260.75          26.46         336.90         542.35        2383.52         309.35
         210.42          47.57           4.52         982.44        2305.00         238.36
         176.30          74.70         444.11         392.42        2462.42         349.98
         219.58         228.66         292.91          18.34        2790.48         500.24
         183.85          30.68          34.09         909.64        2391.68         303.48
         150.35         208.13         132.41         624.67        2434.41         345.78
         237.19          53.11         157.84         828.72        2273.10         220.60
         153.86          83.49         161.56         857.94        2293.13         262.04
         163.43         158.88          55.02         460.58        2712.06         483.81
         251.37         101.01         141.97         827.19        2228.41         179.27
         209.75         222.00         520.57         378.01        2219.63         165.60
         197.30          21.01         158.96         958.21        2214.50         152.14
         283.03         131.64         371.82         425.35        2338.14         265.89
         194.43          59.03         156.28         847.30        2292.92         237.69
         198.84          53.08         180.74         535.58        2581.73         411.22
         144.55          81.71         619.20         291.38        2413.11         321.16
         162.85         190.14         243.61         353.87        2599.50         424.38
         206.87          12.92         167.98         500.88        2661.30         456.61
