 # HCl ZPE restriction,  Energy (cm-1), speed (m/s)
 #HCl ZPE (DMC): 1483.743446, WWW ZPE (DMC): 15602.536472
 #E_given = DMC ZPE + 3550 =21233.1103893624.
 #Dvib = Evib - ZPE
 #D0 = E_given - Erot(W) - Erot(HWW) - Evib(W) + Evib(HWW) -E_COM,E_COM=0
 
     #Erot(HCl)     #Erot(WWW)     #Dvib(HCl)     #Dvib(WWW)             D0         #Speed
         530.00         204.63        1830.78       -1304.06        2288.61         259.68
          53.10          25.35        1305.54        -125.47        2291.45         222.00
         482.24           7.83         551.17         290.89        2217.83         151.61
          40.27         342.53        1326.89       -1371.19        3211.45         648.93
         578.54          41.03        1547.44       -1056.70        2439.65         336.59
          95.99          38.03        1632.40        -785.07        2568.62         417.83
         430.41         193.31         578.35         138.57        2209.31         157.85
         751.21         814.25        1206.25       -2709.13        3487.37         727.85
         591.42         591.42         166.94        -327.67        2527.86         382.26
         115.00          80.88         661.37          59.32        2633.39         434.47
          29.03         122.65        1111.43          80.51        2206.37         159.75
        1011.52         834.96         309.99       -1211.29        2604.77         429.14
         191.19         103.20        2276.01       -1237.87        2217.41         161.88
         394.60          56.16         840.16        -230.74        2489.78         368.93
         342.32         179.06          64.03         704.63        2259.93         203.14
         408.06         178.90         226.76         454.32        2281.91         253.75
         179.87          54.69        1386.90        -594.32        2522.82         387.96
         610.55         204.03         422.95          14.87        2297.58         252.54
         263.15         276.30         868.00        -205.10        2347.60         272.79
         142.79          22.17         552.74        -433.41        3265.67         680.92
         473.36          94.95         942.00        -285.56        2325.20         271.24
          81.05         176.33         133.72         604.02        2554.84         397.07
         273.73         226.71        1039.01        -460.40        2470.93         357.04
         129.44         357.06         485.84         303.15        2274.47         216.68
         305.05         416.90         840.96        -425.25        2412.30         323.76
          51.70          50.17        1189.21          25.23        2233.65         197.97
          76.02         131.32         979.32        -514.75        2878.05         539.98
         314.23         228.08         393.77           6.22        2607.65         430.45
         398.28          56.30         469.64         196.41        2429.33         327.75
         109.08         127.24          98.58         929.51        2285.58         234.67
         208.45         371.06         909.68        -292.50        2353.28         285.64
         217.34          27.74         604.96         448.26        2251.65         181.75
         136.19         100.52        1662.70        -674.61        2325.17         266.83
          10.29          13.58         849.98         493.00        2183.09         123.58
         310.25          97.60         742.64        -104.70        2504.19         388.51
         362.35          60.83         369.83         412.22        2344.73         278.71
         140.94          54.73        1203.86        -270.54        2420.99         334.76
         102.34           8.57         684.55        -211.02        2965.53         566.16
          15.12          41.36        1057.84         200.02        2235.62         176.94
         194.92          31.07         451.75         492.28        2379.92         302.49
          17.92          44.26         882.67        -151.81        2756.93         492.67
         315.38          73.95         655.63        -223.19        2728.19         479.08
          45.81          37.49         795.72         104.86        2566.08         411.00
          27.05         234.47        1810.51        -930.23        2408.17         318.61
          32.60          13.81         392.62         830.85        2280.09         225.98
        1318.32         318.99        2054.95       -2654.66        2512.35         388.06
          71.72         163.32        1229.09        -327.85        2413.67         307.60
         170.01         378.15        1037.91        -264.69        2228.57         167.61
          26.49         753.81          76.11         130.94        2562.62         412.79
         235.50         158.59         545.79         203.51        2406.55         326.85
         480.52          67.60          96.07          78.70        2827.08         516.21
          29.04          30.48         626.81         612.99        2250.66         179.58
         127.38         947.16        1189.88       -1014.99        2300.54         235.86
         401.13         297.77         310.05         265.56        2275.46         215.13
         149.96         398.02          32.79         187.20        2781.98         499.91
         321.17          68.62         359.99         535.70        2264.46         211.11
          15.12          61.79         336.07         883.97        2253.02         168.93
          32.28         374.90        1282.68        -573.19        2433.30         344.10
           6.09         351.20         166.40         734.28        2292.00         263.02
         142.72         181.83        2913.84       -1921.40        2232.96         177.06
         214.94          43.15          86.72         349.11        2856.06         525.39
          22.71         206.85        2270.78       -1258.70        2308.32         247.08
         122.95         207.91         215.18         461.47        2542.45         409.23
         285.10          21.46        1041.58        -272.34        2474.17         365.12
         361.32         190.35         200.99         561.11        2236.18         187.80
         526.36         361.13        1789.10       -1642.30        2515.67         381.93
          54.37         206.91         907.41         147.24        2234.03         179.96
         397.49          12.85         100.21         839.72        2199.70         129.28
          99.59         669.31        1548.00       -1184.30        2417.33         332.26
         153.57          82.47         215.56         612.26        2486.10         354.37
         432.60         512.21         268.40         -78.13        2414.87         324.09
         507.08          14.72        1682.82        -961.72        2307.07         269.46
         381.45         140.20         337.67         390.77        2299.84         280.50
         106.00         252.44         640.05         277.95        2273.50         237.38
         248.30         227.14         148.83         723.25        2202.45         155.58
         962.71         401.97         422.06        -555.74        2318.96         263.79
         406.34           7.53         933.62        -584.41        2786.88         508.91
          14.62         150.87         764.27        -543.37        3163.57         636.02
         493.31          49.95        1020.46        -782.75        2768.99         503.75
         465.26         411.17        1887.47       -2190.23        2976.29         577.45
          54.55          76.21          62.57         740.70        2615.94         431.03
          62.36         420.82        1186.60        -446.41        2326.59         250.76
         217.47         422.06         179.31         450.20        2280.92         199.67
         412.44         805.01         587.04        -492.30        2237.78         191.15
         409.45          38.10        1699.31        -952.19        2355.30         272.23
         569.46         258.56           5.14         398.18        2318.62         302.25
         113.95         283.63        1868.10       -1145.32        2429.61         324.06
         148.60         103.51         448.61         330.56        2518.69         378.66
         388.40           1.08          45.94         891.74        2222.81         157.62
           2.30         117.30         802.99         151.08        2476.30         370.25
         992.50         369.82        1967.13       -2379.16        2599.65         431.41
        1348.10          62.70         456.43        -806.45        2489.15         375.65
          19.78         549.02         792.44        -192.92        2381.66         309.26
          81.81          65.09         155.28         809.38        2438.42         340.74
         359.80          60.79        1129.29        -895.53        2895.60         541.91
         116.39          85.35         654.49         436.71        2257.02         231.32
         267.41         141.31        1658.28       -1361.70        2844.65         535.83
          73.95         647.28        3287.17       -2862.73        2404.29         332.36
          92.34         128.64        1730.94        -580.24        2178.27         132.62
          97.85         445.41        1332.76        -550.71        2224.66         164.33
         812.20         259.24         227.73        -275.89        2526.67         377.64
          90.97          44.79         561.50          45.95        2806.76         510.99
         844.87          34.32         252.07         229.65        2189.06         106.40
         315.25         328.99         459.93          38.80        2407.00         321.62
         700.06         156.53         102.93         164.77        2425.66         344.63
         591.39         304.98         675.97        -630.91        2608.53         433.40
         340.75          48.64          87.45         776.02        2297.10         241.15
         992.22         106.14         342.30         -71.74        2181.04          93.77
          83.20         173.48         500.93         580.61        2211.75         166.47
         188.04          52.49         153.37         875.34        2280.72         218.23
         109.10           0.24        1106.80        -157.24        2491.07         364.63
         275.78         540.29        2353.81       -1840.36        2220.45         203.96
           3.27         673.32         738.41        -113.59        2248.54         202.32
         173.07         155.16         369.51         430.71        2421.50         336.17
         268.86         153.30         407.33         396.62        2323.88         273.32
         127.41         134.24        1001.29          80.92        2206.13         128.98
          28.91         136.84         189.85         452.20        2742.15         481.57
         254.06         148.09         545.20         330.54        2272.09         229.08
         166.47         248.23         216.75          79.90        2838.61         516.51
         371.25         122.87         293.52          67.81        2694.51         478.05
         206.67          15.02         916.04         168.89        2243.35         191.66
         320.34         130.01         360.40         555.83        2183.37         119.10
         317.76         594.25          45.95         338.61        2253.38         195.23
          86.35         114.30         203.77         894.96        2250.57         204.85
         684.88         120.30         832.47        -419.29        2331.60         262.52
         677.29         104.00         417.32          80.50        2270.84         224.67
         183.99          14.14         699.69         393.03        2259.13         215.93
         135.32          70.12         265.55         729.59        2349.39         292.07
         163.52          78.42         622.36         415.92        2269.75         272.35
          83.65         302.86        1628.09       -1147.58        2682.94         461.20
          94.55          39.25        1596.20        -989.32        2809.29         504.93
          35.55          72.34         784.41         181.96        2475.71         347.53
         149.67         197.79         971.82        -190.14        2420.81         320.79
         110.36         645.46         448.19        -349.19        2695.13         468.99
         823.41         184.32         479.01        -201.52        2264.73         237.52
          19.90          29.76         461.44         756.67        2282.20         243.21
          51.15         482.06         264.07         431.85        2320.81         298.19
         720.61         425.08         607.24        -814.90        2611.92         440.53
         362.84         258.49          60.55          28.80        2839.29         523.54
           8.68          88.99         894.22          44.91        2513.16         376.48
         285.66         139.23        1708.11        -969.00        2385.96         305.57
           5.69         176.64        1159.58        -156.76        2364.83         303.38
          67.56           0.52         158.92         682.76        2640.22         437.36
          47.59           2.28         671.84         -39.71        2867.98         534.23
         119.88          92.75         255.37         481.38        2600.57         426.57
         467.00         212.36        1295.72       -1858.26        3433.14         721.99
        1501.34         119.81         678.08       -1526.19        2776.93         502.68
        1011.86          75.80          33.87          16.59        2411.82         308.93
         161.23          42.13         583.11         352.47        2411.02         323.00
         150.77         373.61         744.52        -180.00        2461.07         351.86
         161.46          28.93         613.31         358.10        2388.17         322.98
         480.18         273.80        1058.89        -822.75        2559.84         398.34
           3.29         141.35         174.20        1030.74        2200.38         144.36
          94.97         175.73        1972.41        -904.29        2211.15         162.43
         703.28         144.07         399.58        -180.76        2483.79         370.08
         508.60           1.94        1976.50       -1448.68        2511.59         377.63
         347.78         182.55         152.87         572.98        2293.77         252.12
          53.80         281.53         662.01         -93.95        2646.58         440.60
         187.86         148.28        1640.89        -799.79        2372.73         296.02
          85.63         216.35        2724.48       -1785.01        2308.49         259.88
         590.27          53.10         231.51         309.65        2365.45         298.14
         759.13          32.64         432.54        -100.51        2426.17         323.01
         159.70         666.82        1802.48       -1356.36        2277.32         224.78
         393.87         299.82        1700.84       -1048.73        2204.18         161.61
          19.64          19.83        2469.32       -1262.38        2303.56         225.49
         442.85          13.80        1218.17        -329.27        2204.40         156.11
          26.46          18.21        1581.45       -1935.79        3859.64         827.82
         872.24         316.54         296.59        -238.32        2302.90         248.82
         172.19          93.73         174.90         804.99        2304.15         245.15
         771.40         170.51        1021.79        -792.31        2378.58         306.74
          44.61          11.68         715.70        -344.38        3122.35         624.80
          62.09          36.82         674.69         600.75        2175.60          98.19
         436.41         203.81         150.97         100.17        2658.61         463.59
         165.25         127.19         129.70         817.98        2309.84         239.80
         110.55         517.06        1596.72        -986.00        2311.64         220.78
         284.24           0.65         201.80         728.69        2334.58         284.75
          49.18          14.21         141.91        1123.30        2221.37         188.93
          62.87         203.23         853.73        -924.99        3355.12         690.55
         377.68         422.13         217.30         218.20        2314.66         268.37
         142.01         310.14         606.00        -209.19        2700.99         470.31
         219.01         351.30         145.73         489.94        2343.98         276.17
         225.18         238.02         423.44         463.65        2199.68         174.45
         170.75         131.35        2070.26       -1091.00        2268.61         202.17
           2.35         352.49         956.98        -717.38        2955.53         559.61
         299.62          12.38        1275.33       -1157.53        3120.18         633.97
         262.97         146.42         486.52         348.99        2305.05         244.13
         167.20          58.94         256.21         645.58        2422.03         349.07
          80.09          93.97          85.69        1083.40        2206.80         147.89
         216.34          93.03         459.74         460.49        2320.37         250.43
         499.34         124.15          60.73         340.64        2525.11         399.87
         976.05          36.90         606.72       -1837.47        3767.73         815.03
         112.92         205.90         423.96          29.14        2778.02         497.56
         512.41         207.55         129.56         117.08        2583.36         427.56
         108.13         253.12         125.74         137.26        2925.70         556.18
           5.54         171.02        3379.50       -2203.45        2197.37         153.56
         107.62         205.29        1119.65        -672.13        2789.54         512.77
          37.23         189.86         301.32         558.82        2462.73         340.25
        1005.25          55.72        1319.11       -1037.07        2206.93         182.25
         283.77          43.56        1504.43        -607.17        2325.38         251.32
         413.58         262.92        1599.24       -1058.57        2332.78         280.19
          39.11           5.62         735.64         536.34        2233.26         201.32
          87.78          53.34        1267.09        -162.00        2303.74         255.13
          94.54         113.74        3420.56       -2263.71        2184.85         133.75
         475.41         116.22          19.20         462.13        2477.01         370.51
         166.14         475.19         690.08        -281.20        2499.74         378.31
         487.40         820.29         542.46        -685.52        2385.33         317.03
          60.15          18.64         248.78         665.70        2556.69         387.57
           4.11         106.08        1373.85        -186.13        2252.06         172.50
         243.52          36.21         894.24          53.38        2322.60         275.56
           6.75          94.63         119.18        1038.87        2290.54         235.63
         322.44         107.18         222.76         544.98        2352.62         297.15
         263.05          84.92         964.75        -267.84        2505.07         371.54
        1004.23         213.36         125.76        -319.52        2526.14         396.41
         124.67          88.32        1005.53        -333.58        2665.00         462.86
          51.42          50.14         607.02         483.98        2357.37         309.70
          87.65          66.86         539.24         630.68        2225.55         202.20
         364.55         137.79        2043.63       -1318.17        2322.17         265.76
         885.15         511.67        1306.32       -1451.23        2298.04         260.54
         133.92         193.94         511.12        -225.78        2936.79         556.30
          80.59         838.57        1174.63        -991.40        2447.58         346.84
          37.06          83.39         492.80         418.81        2517.89         381.17
          63.83          65.49          93.25         871.13        2456.24         360.41
         233.10         126.81        1156.52        -601.27        2634.79         434.18
         204.62         109.04         142.50         178.52        2915.29         559.50
         115.83          18.40         382.31         767.53        2265.90         216.96
          20.10          19.86         908.57         209.38        2392.04         314.24
         261.34           0.87         129.97         759.63        2398.15         312.98
         347.32         326.59         707.36        -392.42        2561.10         401.49
          59.86         165.96        1310.05        -335.84        2349.95         280.71
         654.99         127.80        1205.39        -792.37        2354.16         298.51
         324.30          41.83         520.28         467.94        2195.60         150.88
          72.37         198.11          32.60         820.05        2426.84         318.43
          42.65         111.65        1822.60        -737.02        2310.09         243.64
         173.43          67.39         621.64          33.55        2653.95         448.66
         159.04         144.32        1195.04        -920.38        2971.93         568.38
          83.20         109.95        1198.67        -164.45        2322.58         277.67
         355.37           9.05         369.59         516.73        2299.22         261.59
         218.12         378.78        1559.06        -915.99        2309.99         249.67
         210.78         628.43        1126.17        -938.85        2523.42         395.46
         600.20         196.73        1120.28        -898.98        2531.73         390.76
          14.82         186.10         525.84         602.45        2220.75         191.46
         442.83         404.37        1368.70        -928.71        2262.77         207.77
          66.08          69.50         333.22         901.25        2179.91         110.93
         130.75          40.07         304.59         837.60        2236.97         191.63
         120.40          98.22         656.75          20.00        2654.59         449.26
          98.30          33.33         694.41         107.78        2616.13         444.16
          47.96         123.98         986.02        -490.51        2882.50         538.70
          42.55         119.02         204.22         619.83        2564.34         406.20
         133.64          24.48        3588.15       -2960.08        2763.76         492.63
          42.46          22.95        1025.24         156.49        2302.82         236.64
         145.15         387.29         507.26         230.23        2280.04         228.55
         269.62          44.56        1045.64         -51.13        2241.25         190.40
        1152.82         596.61         386.79        -924.97        2338.69         280.68
         362.92          28.14         142.14         737.82        2278.92         216.26
         150.69          13.22         182.08         979.43        2224.55         155.27
         339.67          62.85         173.79         721.20        2252.46         215.34
         165.71          28.32        1635.74        -753.82        2474.01         354.01
          42.14         216.62         827.12        -232.77        2696.85         470.87
          46.70         258.34        2302.03       -1644.31        2587.21         428.71
         316.84         779.32          36.73         -42.69        2459.77         375.06
         150.75         305.61         172.54         700.58        2220.50         207.47
         123.06          58.07          15.41         984.32        2369.11         299.47
          13.56         191.83        1157.73        -294.92        2481.75         358.13
          39.05          46.80         505.24         704.52        2254.36         204.38
         110.61         108.04         175.20         650.49        2505.62         366.82
          91.07         682.81          84.06         354.19        2337.84         261.88
           9.28         129.32        2020.37        -883.32        2274.31         217.53
         135.57          53.28        1431.93       -1280.69        3209.85         650.17
         106.97         561.16        1064.29        -783.55        2601.08         426.15
         260.75          26.46         336.90         542.35        2383.52         309.35
         670.06          62.87         419.69          33.13        2364.21         288.89
         808.09         688.69        1267.76       -1566.78        2352.18         295.75
          53.34         611.26         465.33          77.90        2342.14         265.85
         131.61          14.33         316.73         708.15        2379.15         302.65
          74.88         232.86         145.82         766.21        2330.19         261.62
         252.57         224.69         294.74         448.27        2329.68         267.10
          50.35         476.54         581.31         220.81        2220.94         165.41
          68.51          17.94        1100.50         120.28        2242.72         161.59
         247.45         123.37        3971.34       -3087.76        2295.58         266.87
         157.66          22.70         184.80         932.06        2252.77         185.71
         747.37          37.45        2244.06       -1788.69        2309.78         245.34
           0.61         525.46         662.76          84.80        2276.33         243.67
          59.79         536.96         625.19        -253.37        2581.38         409.65
          44.33          22.91         401.72         363.24        2717.75         475.89
         125.82          17.03          98.81         676.27        2632.01         436.69
          38.14          79.03        1078.17        -354.68        2709.31         474.17
         317.35         369.01         179.84         -89.26        2773.03         494.73
         626.65           2.39         633.37          50.15        2237.40         185.55
           1.50         208.70         805.58         131.82        2402.34         322.53
         195.23         221.86        2031.34       -1187.02        2288.55         211.73
          22.97         135.16         269.24         867.48        2255.13         203.11
         183.56         190.30         886.99        -578.22        2867.32         537.35
          97.33         178.44         542.81         350.07        2381.30         290.89
         359.36         162.91         159.90         599.30        2268.50         215.62
          19.44         415.53         849.79        -903.99        3169.18         637.53
           9.52         130.86          14.86         937.46        2457.26         352.09
          39.14          43.21         183.60        1018.93        2265.08         225.02
         247.74          94.75         953.00        -530.99        2785.48         495.46
          22.40          72.48        1622.71        -434.65        2267.03         188.30
         956.78         107.36        2612.73       -2628.89        2501.98         382.66
         138.02         116.76        1384.02       -1091.47        3002.64         580.00
          83.37         167.32         112.65         773.94        2412.68         325.46
         608.29         135.43         222.29         120.24        2463.71         358.66
         246.50         307.06          15.61         739.57        2241.23         180.81
          21.52         228.71         971.08         -20.57        2349.23         277.83
          39.34          84.10        1049.50          89.20        2287.81         233.85
         199.35         130.57        1093.56        -190.28        2316.76         262.85
         176.30          74.70         444.11         392.42        2462.42         349.98
          68.33          24.93        2570.66       -1454.00        2340.05         292.16
        1252.99          46.14         190.79        -374.52        2434.55         323.33
          84.86         348.70        1048.79        -376.49        2444.09         343.49
         219.58         228.66         292.91          18.34        2790.48         500.24
         135.72         748.79          79.45        -309.02        2895.03         545.75
         365.38         507.51         943.47        -791.76        2525.36         382.06
         613.33         352.47        1172.84       -1054.01        2465.30         362.67
        1755.64          37.50         774.38       -1212.11        2194.53         146.93
          44.06          80.27         408.63         608.74        2408.26         298.61
         183.85          30.68          34.09         909.64        2391.68         303.48
         102.92         645.64          33.61         228.10        2539.68         397.46
         104.99         338.85        1310.03       -1276.83        3072.90         605.95
         302.87          49.06        1348.75        -356.13        2205.42         157.63
         116.31          28.33          95.81         943.85        2365.66         295.96
         341.31          90.68          58.74        -241.44        3300.68         676.61
         284.04         124.12         300.70         622.94        2218.15         180.25
         528.20         315.18         170.60        -921.04        3457.03         720.19
           0.21         563.66         421.55         121.29        2443.25         339.10
           8.15         293.60         954.44          54.49        2239.29         186.64
         103.04         129.68         610.59       -1049.93        3756.59         800.33
          24.85          94.82         578.19         209.06        2643.02         447.37
         159.46         124.76          56.78         827.80        2381.17         298.68
          40.09          12.75        1107.90        -146.78        2535.99         386.67
         435.77         100.20         677.74         149.64        2186.61          96.56
         150.35         208.13         132.41         624.67        2434.41         345.78
         550.90          77.00         944.41        -907.52        2885.15         537.72
          71.63         169.54         400.05         617.50        2291.23         249.25
          72.48          38.92        1679.46        -624.68        2383.78         307.83
         224.59         241.95        1597.15        -798.04        2284.32         242.93
           1.32          70.85           0.20        1166.40        2311.17         248.58
         274.96         126.98        2811.82       -2042.75        2378.96         311.94
         823.55         158.58          33.52         173.50        2360.81         293.39
          13.93         252.13          19.05        1058.53        2206.34         144.65
         130.06         385.25        1867.55       -1066.29        2233.39         185.71
          90.54         113.43         395.03         -43.06        2994.02         577.44
         237.19          53.11         157.84         828.72        2273.10         220.60
         337.69          71.73         900.41        -114.59        2354.72         289.73
         153.86          83.49         161.56         857.94        2293.13         262.04
         163.43         158.88          55.02         460.58        2712.06         483.81
         622.10          81.42         252.25         295.42        2298.77         245.19
         348.87         184.79         499.45         200.68        2316.15         245.48
         244.30           4.74           0.39        1040.37        2260.17         201.18
          15.23           6.89         801.13         320.01        2406.68         302.96
         350.22          28.94         906.10          11.19        2253.52         209.83
         601.17          73.18        1407.35       -1139.27        2607.54         412.68
         130.84         107.48         790.82         -78.64        2599.47         419.52
         249.86          22.66        1121.80        -296.25        2451.88         306.66
          55.25         252.15         393.19         593.70        2255.69         207.85
           9.37         376.92         911.51        -229.72        2481.90         363.69
         294.72         418.32        1165.26        -709.35        2381.01         297.20
          23.98          78.67         666.78         489.16        2291.38         236.92
         576.02         305.10         606.85        -401.50        2463.49         351.41
          32.73         406.43        1157.59        -732.98        2686.20         462.20
         411.36          96.32         147.51         572.86        2321.91         276.87
         426.72         131.14         281.38         248.83        2461.89         342.89
         965.73          29.69        1807.78       -1964.20        2710.95         480.93
         596.86         376.01        1010.90        -940.88        2507.05         378.92
         109.22         188.90        2713.22       -1757.05        2295.66         239.93
         931.90         160.84        2338.30       -2531.41        2650.33         447.85
         106.67          73.03         837.70         297.32        2235.24         179.38
          63.59         292.95         175.25         410.16        2608.02         419.59
          60.94         403.37        2955.40       -2592.82        2723.08         488.33
         182.82         145.19         185.00         402.77        2634.18         444.83
          60.81         233.53        1515.71       -1367.11        3107.02         614.76
         357.71         713.30        2255.20       -2155.27        2379.02         312.56
         522.45          25.86        1222.68        -929.85        2708.81         471.77
          84.50         198.22        2193.75       -1225.25        2298.74         255.54
          27.71         441.63         219.35         189.07        2672.19         454.36
          89.46         170.62         388.63         698.94        2202.30         146.27
          21.80          27.63        1881.20        -821.28        2440.62         329.81
         287.96         293.99         619.02         -41.44        2390.43         307.65
          64.14           8.38         492.96         775.85        2208.64         153.78
         773.46         110.11        1233.18        -865.05        2298.26         239.75
          92.53         504.74        1924.56       -1683.92        2712.04         488.89
         115.50         113.75         574.88         227.82        2518.02         392.34
         347.74         214.74         719.75        -358.35        2626.07         437.00
         511.08          25.33         175.08        -149.83        2988.31         572.84
         188.23          27.05         509.06         470.56        2355.08         273.66
         157.32         302.66        1416.39        -830.27        2503.86         374.57
         150.64         209.71         457.49         503.63        2228.50         157.18
         269.06          60.63         946.51        -362.26        2636.01         444.82
         184.88         425.29          29.75         481.03        2429.00         334.12
         251.37         101.01         141.97         827.19        2228.41         179.27
          42.66         128.75          49.81         682.16        2646.59         433.63
         330.30         266.80         590.64         -44.46        2406.69         312.44
         378.66          44.46         658.40          53.77        2414.69         313.46
         421.06         181.75          65.13          88.83        2793.20         500.30
         262.63         111.73         340.88         567.36        2267.35         250.26
          95.06          76.92        1521.25        -490.49        2347.22         261.76
         384.15         347.18        1745.26       -1459.58        2532.95         392.34
         669.38          61.43         205.40        -109.89        2723.63         472.37
         567.79          78.04         142.23         192.59        2569.31         397.52
         146.55         390.82          19.98        -387.89        3380.50         699.80
         509.39         269.68         133.98         344.97        2291.92         254.02
         428.40         139.58          39.32         466.31        2476.35         357.70
         447.16         326.42          40.85         505.30        2230.22         152.84
         150.41         166.69        1501.79       -1055.51        2786.58         511.46
          11.77           2.05        1557.53        -335.25        2313.86         247.09
         372.44         328.29         258.82         216.19        2374.22         309.03
         209.75         222.00         520.57         378.01        2219.63         165.60
          42.85         130.59         199.26         780.87        2396.40         320.09
          78.94          80.08         301.13         871.26        2218.58         144.66
         358.27         284.99        1035.64        -961.98        2833.05         520.25
         332.25          20.69         158.36         143.11        2895.54         548.19
         352.27         156.36        2899.75       -2671.49        2813.06         506.73
         148.89         171.94        1117.26        -240.53        2352.40         291.37
         313.62         127.60         926.71        -186.87        2368.89         303.07
         151.42          37.12         359.12         760.63        2241.65         190.60
         228.72          28.17         901.45          89.37        2302.28         241.25
         621.87          13.31         146.67         535.62        2232.49         217.89
         302.18           6.53         136.99         878.39        2225.87         174.17
         241.78         476.23         492.87        -170.66        2509.73         381.10
         281.79          52.76         753.66        -589.95        3051.70         593.30
         326.40          19.71        1107.79        -218.77        2314.84         246.18
           4.18          36.73        2750.78       -1472.33        2230.61         188.39
         574.90         322.90         266.83         -95.72        2481.04         352.37
          51.25          84.15        3014.29       -2349.25        2749.52         495.15
         247.39          11.71         150.80         918.54        2221.51         182.92
         195.01         109.32        1220.30        -375.04        2400.38         331.46
         100.02         238.77         542.58          47.68        2620.92         436.78
           1.58          23.08         766.95         237.49        2520.87         387.38
         244.20          41.41        1949.94        -893.43        2207.85         154.69
          11.20           1.09         490.78         832.34        2214.54         178.00
         894.59          97.09         472.89        -164.18        2249.58         199.29
         175.46          34.21        2029.92        -975.29        2285.67         230.26
         381.10          54.38         332.49         215.41        2566.59         406.08
         915.23         191.24           9.92         -12.94        2446.52         343.36
         426.79         144.49         197.68         353.48        2427.52         335.23
         111.75          77.83         515.91         627.55        2216.92         150.28
         198.33         105.95        1216.90        -392.60        2421.40         323.35
         274.21           7.07        1222.80        -161.67        2207.54         160.48
         197.30          21.01         158.96         958.21        2214.50         152.14
         450.09         169.84          28.26         226.00        2675.79         458.21
         532.40         105.44          38.84         580.32        2292.97         252.61
         776.13         122.12        3129.76       -3063.40        2585.34         425.90
          35.19         219.23         249.04         461.63        2584.87         411.98
         124.82         442.69        1525.57        -851.45        2308.31         245.83
         247.29          41.88        3687.99       -2630.05        2202.87         169.94
         313.49         478.32         782.26        -407.53        2383.41         290.86
         296.16         183.08         974.10        -109.59        2206.20         168.74
         294.13         372.65         635.27        -529.44        2777.36         500.39
         114.47         202.00          97.70         921.46        2214.33         218.92
         318.23          76.71         442.57         489.38        2223.08         165.08
         283.03         131.64         371.82         425.35        2338.14         265.89
          57.02          83.59         591.77         412.01        2405.57         309.99
          23.66         253.97         240.10         688.53        2343.70         270.95
         490.17         106.18        2244.68       -2331.66        3040.60         593.65
         393.03         185.53        1402.17        -622.62        2191.87         130.85
         352.63          19.09        3090.95       -2178.06        2265.35         205.35
         387.43         162.15        2978.35       -3702.89        3724.92         783.80
         379.68         170.17         835.14        -145.78        2310.73         253.41
         807.91          80.60        1452.72       -1241.41        2450.14         346.83
         310.95         107.93         918.30          -3.02        2215.79         193.30
         552.78         228.86         341.70          17.90        2408.71         314.37
         128.62         133.10         687.37         295.99        2304.87         251.67
         359.63          62.08         667.07         241.19        2220.01         157.84
         995.00         535.71          51.10        -302.11        2270.27         193.22
          21.83         602.88        2653.28       -2201.49        2473.47         337.07
         154.54          71.76        1120.95        -360.46        2563.19         394.66
         568.00          98.27        1688.95       -1030.34        2225.08         165.30
          28.69         324.00        1011.31        -104.07        2290.03         218.85
         177.41         335.52         424.33         -21.78        2634.48         438.23
          99.19           3.65          99.70        1168.60        2178.83         103.75
         194.43          59.03         156.28         847.30        2292.92         237.69
         372.42          39.18        1031.56        -404.09        2510.89         379.17
         198.84          53.08         180.74         535.58        2581.73         411.22
         280.59         546.60         304.44         -15.00        2433.33         329.64
         433.25         138.66        1578.76        -797.33        2196.59         186.90
         239.80           8.27        1023.74        -281.51        2559.68         431.76
          85.28         304.89        1345.85        -805.97        2619.91         433.42
         144.55          81.71         619.20         291.38        2413.11         321.16
         637.77         345.69        1256.28       -2114.21        3424.42         717.80
         812.60         155.82         309.75          14.61        2257.19         181.45
         409.71          10.62        2233.55       -1679.82        2575.90         420.31
         103.00          12.35        1440.73        -280.32        2274.20         225.16
         140.01         288.20         603.45        -132.61        2650.91         442.69
          42.67         189.99         606.62         179.13        2531.55         383.82
         274.47          27.12         236.06         824.50        2187.80         100.92
          37.70         305.63          82.22         655.70        2468.71         345.60
         251.32          47.07         362.04         622.38        2267.15         213.13
         162.85         190.14         243.61         353.87        2599.50         424.38
         206.87          12.92         167.98         500.88        2661.30         456.61
         152.47          63.48        1244.97        -249.91        2338.96         282.66
          33.51          77.98          27.05        1122.95        2288.47         260.70
         581.42         243.59         624.96        -233.37        2333.36         276.45
         403.51         284.92        1481.46       -1059.08        2439.14         340.68
         312.91         251.97         674.91        -153.07        2463.22         357.11
         316.74         882.92        1244.60       -1448.81        2554.50         410.55
          80.29          92.57         204.15         743.19        2429.77         325.57
         387.64          42.79         449.66         412.88        2257.01         188.85
         333.65         179.99        1513.82       -1097.51        2620.02         424.04
         276.60         287.22         188.77         485.47        2311.89         250.73
          36.81          32.54        1144.84        -202.42        2538.19         392.97
         466.53          73.02         117.17        -607.29        3500.53         728.41
         345.93         357.18         647.56        -268.77        2468.07         363.10
         176.12         333.33         630.64        -240.43        2650.31         438.05
         360.38           3.68         731.99         262.08        2191.84         142.64
         108.49          87.78         646.19         505.66        2201.83         110.42
         138.02          22.97        4157.45       -3098.90        2330.42         241.27
         209.62          19.71        2565.46       -1567.98        2323.16         270.41
        1133.98          62.79         149.09        -256.02        2460.13         363.81
         389.46         238.32         629.14          53.80        2239.24         188.37
          62.28          70.60         643.72         570.18        2203.19         150.98
         153.57         149.12         142.59         807.88        2296.79         240.13
         289.05          63.03        1401.15        -653.40        2450.12         351.08
        1198.72         554.37         596.14       -1566.18        2766.91         499.30
          25.08         142.98        1237.80        -152.77        2296.89         237.63
         266.06          92.99        1346.31        -695.39        2539.99         393.47
         203.44          76.47         437.91         454.33        2377.83         302.63
         200.35         104.40         392.09         435.03        2418.11         346.56
         581.61         100.54         276.94         -57.11        2647.97         449.59
          47.66         274.53         859.56         -91.10        2459.32         352.01
           1.08         163.74         528.26          43.22        2813.63         523.21
         144.73         146.65         546.68         270.46        2441.44         347.57
         257.60          57.90         381.59         623.01        2229.85         161.16
         156.98          47.48        2219.04       -1124.28        2250.75         201.10
         113.61          82.63        1952.58        -825.23        2226.37         152.19
         287.25         132.55         138.60         676.90        2314.69         250.02
          29.14         205.69         454.07         321.14        2539.91         396.13
          49.23         422.27         533.96        -140.34        2684.83         459.42
         350.80         221.26          13.59         708.17        2256.12         224.21
         173.22         835.16         558.27        -535.23        2518.54         376.34
          45.11         137.33        1226.33        -348.57        2489.77         378.56
         221.71          17.65         389.00         173.71        2747.86         497.51
         115.15         168.87        1360.59        -960.31        2865.66         531.06
         246.20        1179.10         634.98       -1675.43        3165.11         646.51
         110.79         251.60         431.15         557.84        2198.58         135.34
         679.07           5.62         932.79        -330.74        2263.22         203.60
         382.53         263.39        1075.44        -621.25        2449.85         339.89
          35.30         539.99         180.59         -19.67        2813.75         506.94
         148.24         439.24          47.23         634.48        2280.78         240.65
          99.10         242.04        2265.45       -1539.07        2482.44         355.42
         456.91         129.82         307.68         442.45        2213.10         169.25
         946.67          80.23        2199.99       -1987.92        2310.99         258.29
         202.80           6.85         271.09       -1654.57        4723.78        1010.66
         166.55         659.25         189.80         166.53        2367.83         300.69
         211.16         359.66         859.08        -474.88        2594.94         427.89
         266.45          37.39         430.61         421.81        2393.71         309.55
         140.84         109.26        3200.20       -2309.62        2409.29         330.77
          44.33          49.50         295.93         759.05        2401.13         302.63
          16.72          48.18         375.76         902.26        2207.04         137.77
          27.41          15.25        1380.91       -1226.13        3352.52         691.96
         434.61          42.47         197.63         412.09        2463.16         364.23
         311.89         384.18        1586.62       -1076.02        2343.28         285.20
          33.15          10.24          62.91        1040.87        2402.79         316.52
         340.52          29.72        1129.93       -1247.54        3297.33         684.48
         189.33           3.02          69.79         937.68        2350.12         277.49
         744.90          50.56         158.55        -250.51        2846.45         525.64
         144.81         444.44         156.78          70.19        2733.75         478.22
         313.26         147.78         715.98          99.95        2273.00         210.62
         272.09         120.96         207.95         618.51        2330.46         252.05
         290.74         109.15        3542.66       -3072.78        2680.20         468.25
        1061.26         176.06         652.41        -589.30        2249.52         210.45
         626.21           5.14         189.94         263.80        2464.88         368.79
           9.61          11.78         127.28         787.54        2613.74         427.10
         268.85           8.31        1660.29        -713.60        2326.11         266.36
         189.82          81.31          73.10         874.21        2331.54         269.67
         445.71         204.91        1793.24       -1355.43        2461.54         367.93
         363.97         211.47        3359.28       -2751.70        2366.95         302.02
         210.42          47.57           4.52         982.44        2305.00         238.36
          36.65          18.16         645.15         342.52        2507.51         379.96
