 #HCl ZPE (DMC): 1483.743446, WWW ZPE (DMC): 15602.536472
 #E_given = DMC ZPE + 3550 =21233.1103893624.
 #Dvib = Evib - ZPE
 #D0 = E_given - Erot(W) - Erot(HWW) - Evib(W) + Evib(HWW) -E_COM,E_COM=0
 
     #Erot(HCl)     #Erot(WWW)     #Dvib(HCl)     #Dvib(WWW)             D0         #Speed
         193.39         481.66       -1125.88        1321.17        2679.61         462.32
         209.20         111.74        -853.78        1630.59        2452.22         334.88
         195.32         345.53       -1420.39        1976.51        2452.99         344.11
         191.19         103.20        2276.01       -1237.87        2217.41         161.88
         186.15         232.17       -1279.89        2190.45        2221.08         182.66
         196.44          75.60        -131.04        1159.64        2249.32         199.24
         234.01         368.43        -436.47         460.39        2923.61         551.95
         199.78         551.80        -717.50        1024.39        2491.48         362.06
         252.85         154.94       -1447.07        2171.47        2417.77         322.62
         174.70          55.71       -1457.88        2549.17        2228.24         201.89
         201.28         608.33        -228.25         528.61        2439.99         335.87
         179.87          54.69        1386.90        -594.32        2522.82         387.96
         195.43         436.12       -1250.56        1344.99        2823.98         517.42
         241.31          10.19       -1382.73        2057.65        2623.53         433.31
         226.22          50.61       -1042.00        1983.61        2331.54         281.93
         187.44         250.11        -688.14        1373.54        2427.01         340.55
         196.06         371.68        -408.60        1008.05        2382.76         296.47
         176.54          54.63       -1338.29        2263.31        2393.76         314.66
         194.92          31.07         451.75         492.28        2379.92         302.49
         230.84         383.52       -1482.88        2009.53        2408.96         310.42
         199.54         140.75       -1437.82        2322.61        2324.88         250.84
         176.50         154.01       -1156.18        2102.61        2273.03         226.62
         244.17           0.81       -1398.46        2371.97        2331.48         278.60
         255.60         156.19       -1009.26        1516.10        2631.33         449.18
         223.78           4.50        -661.26        1523.40        2459.54         352.70
         166.24          18.89       -1416.86        2558.39        2223.29         170.33
         148.60         103.51         448.61         330.56        2518.69         378.66
         170.96         202.58        -194.86        1056.17        2315.11         252.35
         242.72          11.69        -569.55        1522.47        2342.64         282.95
         241.08         112.26       -1084.43        1788.19        2492.85         367.87
         218.34         126.63        -419.86        1360.52        2264.34         206.40
         213.17         215.91        -623.80        1207.26        2537.43         390.90
         233.37         467.83       -1023.70        1581.97        2290.48         230.66
         216.99         582.31        -335.25         305.89        2780.00         503.44
         203.60         107.92       -1420.55        2366.89        2292.09         234.49
         261.67          74.04        -682.89        1409.25        2487.88         369.17
         227.59          20.09       -1301.80        2191.07        2413.00         319.06
         185.11         209.35        -335.50        1143.47        2347.51         287.89
         188.48           8.27       -1248.32        2126.84        2474.69         355.78
         173.07         155.16         369.51         430.71        2421.50         336.17
         228.81         226.65       -1185.16        1961.66        2318.01         265.61
         215.22         347.14       -1108.64        1719.68        2376.55         316.63
         254.06         148.09         545.20         330.54        2272.09         229.08
         159.30         491.26        -973.61        1645.20        2227.80         184.59
         170.42          73.29       -1125.32        2120.91        2310.67         247.83
         206.67          15.02         916.04         168.89        2243.35         191.66
         248.62         113.55        -490.06        1192.26        2485.59         390.61
         235.03         244.05       -1240.28        2050.99        2260.19         190.83
         187.98         173.86        -970.25        1754.78        2403.57         323.92
         285.66         139.23        1708.11        -969.00        2385.96         305.57
         208.83          60.35        -212.95        1123.75        2369.99         302.94
         180.98           5.94        -874.57        1911.77        2325.84         272.40
         172.93          77.82       -1238.83        2146.32        2391.72         296.15
         218.41         531.38        -451.62         935.69        2316.10         250.76
         210.71         102.49        -279.87        1249.81        2266.81         214.73
         207.00           3.00       -1362.52        2400.42        2302.08         242.34
         161.23          42.13         583.11         352.47        2411.02         323.00
         198.36          15.98        -757.23        1695.82        2397.04         311.52
         217.89         380.78       -1082.47        1821.95        2211.81         179.49
         187.86         148.28        1640.89        -799.79        2372.73         296.02
         210.32          59.85       -1175.21        2071.23        2383.78         295.02
         195.02         141.95        -569.36        1229.29        2553.07         362.34
         184.79         703.09       -1175.68        1500.13        2337.62         296.45
         178.25         122.97       -1260.17        2162.69        2346.22         268.78
         212.76          91.35       -1427.00        1855.19        2817.65         517.12
         188.04          52.49         153.37         875.34        2280.72         218.23
         239.21         132.75        -101.07         369.09        2909.98         564.54
         165.53         127.31       -1004.94        2068.83        2193.23         109.54
         185.24         100.81       -1134.43        2081.68        2316.66         252.02
         156.17          67.09        -125.49        1218.74        2233.46         177.88
         156.66         399.27        -131.54         878.79        2246.79         225.45
         148.67         118.32        -705.70        1354.01        2634.68         432.02
         217.34          27.74         604.96         448.26        2251.65         181.75
         185.12         388.56       -1190.09        1695.69        2470.69         354.05
         258.73          96.73        -937.50        1822.85        2309.14         249.56
         221.53         106.41       -1308.43        2327.85        2202.57         171.67
         185.94          38.89        -100.98         826.48        2599.64         421.53
         185.32           2.15        -771.40        1827.72        2306.18         238.13
         170.15         355.47        -701.25        1249.41        2476.18         353.77
         207.75          31.76        -874.45        1615.31        2569.60         401.11
         217.47         422.06         179.31         450.20        2280.92         199.67
         170.19         133.85        -695.82        1569.00        2372.76         300.54
         253.57          28.93       -1178.07        2059.40        2386.15         315.07
         240.31          34.39        -846.09        1770.43        2350.92         279.11
         173.62         101.42       -1471.45        2526.56        2219.82         142.39
         214.94          43.15          86.72         349.11        2856.06         525.39
         285.10          21.46        1041.58        -272.34        2474.17         365.12
         281.58         310.62        -950.36        1694.84        2213.27         179.15
         204.97          12.66       -1212.17        1714.94        2829.58         518.88
         181.41         140.80        -890.71        1923.18        2195.27         162.68
         149.96         398.02          32.79         187.20        2781.98         499.91
         171.24          57.01       -1214.98        2126.54        2410.13         313.13
         258.58         132.03       -1396.48        1983.56        2572.28         403.31
         142.72         181.83        2913.84       -1921.40        2232.96         177.06
         248.76          22.98        -810.46        1896.29        2192.39         147.56
         187.88         314.84       -1189.45        1904.58        2332.11         266.65
         251.02         202.12        -823.32        1027.15        2892.98         543.27
         194.00         239.05        -933.95        1239.42        2811.45         510.27
         173.80         210.73        -937.80        1798.12        2305.13         236.89
         173.55          82.52       -1334.98        1920.97        2707.89         470.70
         198.77         260.95         713.27         153.89        2223.08         158.94
         219.42           0.79        -927.71        1886.15        2371.30         287.20
         183.05         379.32       -1483.07        2218.21        2252.48         190.11
         205.83          49.79       -1064.25        2090.50        2268.09         195.67
         180.90          36.47       -1459.78        2372.34        2420.03         335.82
         249.09          45.95        -897.70        1859.79        2292.83         234.79
         245.14          68.69       -1339.74        2062.69        2513.18         374.55
         162.60         372.75         954.32        -888.94        2949.22         561.50
         234.42         931.29          61.44        -293.38        2616.17         437.73
         295.98         179.44        -427.43         987.94        2514.04         382.30
         210.97         206.63        -965.41        1749.84        2347.92         287.16
         193.56         108.81        -540.81        1487.05        2301.35         238.17
         240.81         278.71         347.76        -381.89        3064.57         600.75
         248.79         325.43         563.13          71.58        2341.03         266.97
         269.28         242.86        -176.76         594.09        2620.47         445.97
         223.67         460.45         173.33         477.95        2214.56         174.30
         186.32          73.29       -1220.91        2064.41        2446.85         348.08
         181.53         497.50       -1397.67        1418.86        2849.73         530.40
         243.65          42.44        -658.95         620.54        3302.28         671.91
         190.21          63.98       -1243.12        2237.87        2301.01         248.66
         235.93          19.25       -1034.13        1485.81        2843.10         523.00
         204.96         144.29        -320.29        1273.44        2247.55         203.98
         184.15          96.74       -1142.03        2146.36        2264.74         219.19
         263.00          83.11        1806.36       -1161.73        2559.24         397.23
         175.12          38.60       -1337.96        2101.94        2572.26         413.33
         225.46          25.00       -1324.00        2389.90        2233.60         175.97
         195.34         140.83        2320.87       -1519.36        2412.30         330.32
         255.18         337.35         -42.27         419.68        2580.01         408.28
         295.81          73.61         849.84          10.97        2319.74         256.04
         215.87         241.58        -185.09         899.64        2377.95         293.31
         222.41          46.71        -191.47         968.55        2503.76         366.42
         187.22         179.95        -770.94        1615.55        2338.20         258.57
         168.49         209.06         187.42         769.90        2215.12         150.32
         167.93          28.83        -171.10        1317.37        2206.92         155.13
         233.26         475.18       -1092.89        1450.31        2484.09         363.70
         210.78           6.76        -698.76        1783.47        2247.72         189.16
         247.22         205.06        -422.87        1166.04        2354.51         290.83
         193.71          21.90         125.68         948.93        2259.75         219.22
         264.60         189.03       -1226.74        1963.61        2359.46         279.99
         183.63         154.05         543.22         165.90        2503.16         370.93
         231.39          18.90       -1172.74        2083.59        2388.82         308.52
         220.44          50.41       -1016.92        2037.51        2258.53         179.34
         232.53          73.67        -429.79        1230.62        2442.94         337.98
         263.38         198.02       -1063.59        1357.59        2794.56         507.80
         129.42         202.38        1666.91        -738.73        2289.99         252.66
         257.82          52.47       -1383.58        1647.95        2975.30         570.11
         188.85         157.86        -618.31        1586.41        2235.17         195.26
         229.71         470.61       -1021.21        1521.69        2349.14         293.24
         251.97         221.88        -507.33         962.54        2620.89         448.95
         277.55         164.58         174.52         537.91        2395.39         313.14
         178.86          74.19       -1363.92        2126.53        2534.30         385.08
         229.67         282.81        -789.40        1458.85        2368.02         295.50
         169.02         157.28         -96.39         946.63        2373.42         301.01
         229.66         115.31        -448.88         752.33        2901.53         538.37
         176.38         256.52       -1285.30        2065.17        2337.18         283.26
         176.19         202.42       -1314.56        2255.43        2230.50         167.66
         192.05          84.09         777.81          46.22        2449.77         360.89
         173.89          91.65        -542.50        1199.73        2627.21         437.18
         202.84          56.76        -802.77        1827.59        2265.54         200.35
         167.26         239.23        -783.39        1658.74        2268.11         225.44
         274.32          53.67       -1192.38        2173.65        2240.71         174.09
         189.98          20.56       -1470.56        2603.31        2206.68         168.94
         194.72          67.55       -1313.28        2239.44        2361.52         287.72
         227.97          32.96        1312.90        -242.74        2218.88         143.83
         220.28          10.65        -943.15        1908.33        2353.86         269.20
         162.51           4.68        -951.98        1600.23        2734.54         481.09
         223.35          12.93       -1103.04        1752.05        2664.66         445.39
         201.59          64.41        -380.03        1039.75        2624.23         438.89
         205.05         142.63        1476.24        -491.41        2217.43         193.14
         147.25          41.34         434.09         686.40        2240.90         196.33
         152.35         550.17        -212.90         754.69        2305.64         241.58
         163.56         121.23       -1357.38        1890.43        2732.13         492.27
         201.16         131.71           3.82         457.41        2755.86         485.31
         258.87          19.22       -1317.48        1939.77        2649.58         442.62
         222.80          83.24        -577.14        1278.59        2542.47         390.55
         234.04           6.12        -958.34        1824.35        2443.79         335.01
         220.76         411.48       -1128.07        1433.92        2611.87         425.10
         192.77          48.35        -889.32        1843.42        2354.75         286.99
         175.74          62.47        -766.24        1579.33        2498.64         369.87
         206.83         125.16       -1483.52        2230.08        2471.39         366.70
         219.67         136.07       -1040.07        1976.55        2257.73         211.83
         173.15          77.30       -1431.84        2457.15        2274.20         211.32
         167.38          51.77        -371.60        1111.11        2591.29         421.48
         185.60         165.87       -1420.12        2226.55        2392.08         301.68
         242.76         205.54        -192.55        1041.21        2253.01         187.06
         169.41         126.76         688.91         -42.59        2607.48         435.13
         205.98         211.44         647.91          27.40        2457.21         354.43
         236.83         396.10       -1092.43        1623.32        2386.14         320.80
         226.09         260.29        -764.93        1518.22        2310.29         257.03
         256.97         304.57        -898.03        1604.52        2281.94         214.19
         262.95         208.69         799.52          70.20        2208.58         152.72
         261.97          29.62       -1094.90        1931.25        2422.04         318.18
         193.69         144.62       -1452.27        1768.69        2895.24         535.16
         172.93         128.55       -1175.17        1773.84        2649.81         437.09
         178.76         308.52       -1290.32        1885.56        2467.42         351.30
         257.76           8.93       -1461.53        1911.68        2833.11         524.23
         247.70         165.68       -1448.90        1825.53        2759.94         497.60
         228.63          34.96         -64.20         986.74        2363.82         307.69
         298.12          93.85         362.87         188.14        2606.98         415.95
         174.30          19.63        -555.88        1541.88        2370.03         296.35
         164.85         326.96        -851.16        1150.42        2758.88         495.63
         220.07           4.95        -734.19        1258.54        2800.60         511.82
         179.63           8.53         -22.99         817.13        2567.65         412.28
         240.87          44.72       -1104.88        2188.50        2180.73         118.48
         175.74         132.62        -590.08        1552.37        2279.31         223.21
         178.32         224.32       -1384.26        2177.37        2354.20         302.99
         178.85         240.87       -1336.22        1548.97        2917.48         551.67
         174.08          61.93        -745.69        1647.04        2412.60         314.31
         186.56         214.50       -1422.34        1980.91        2590.33         409.99
         168.02          31.37       -1386.71        2417.16        2320.12         260.56
         197.02         101.28         117.48         837.58        2296.58         267.25
         206.18         439.49        -554.17         925.29        2533.17         406.52
         213.66         427.59         282.69         169.94        2456.07         354.27
         165.86          13.48         -48.41        1204.71        2214.30         166.39
         196.81         106.34        -288.79         297.12        3238.47         660.13
         203.73          85.45        -450.23        1372.28        2338.73         286.40
         189.99         315.11         549.20         157.59        2338.07         274.25
         236.97          31.54       -1254.87        2245.74        2290.59         220.72
         217.81         256.18        -594.21        1366.81        2303.37         241.32
         200.55          73.82         463.41         195.04        2617.13         430.00
         213.12          65.88       -1009.12        1758.38        2521.69         376.63
         199.25          18.20       -1374.64        2323.12        2384.03         304.29
         202.47         232.47       -1025.02        1634.36        2505.67         373.84
         212.76          28.29        -801.86        1688.84        2421.92         331.49
         184.02         152.60       -1298.62        2224.37        2287.60         212.00
         223.80          11.35        -404.85        1327.05        2392.62         298.77
         180.33         129.22        -989.81        1761.39        2468.83         348.52
         176.43          61.64        -643.46        1749.11        2206.24         142.90
         169.79           9.26        1058.68         -47.24        2359.45         285.01
         207.89         300.48        -380.13         896.51        2525.20         396.93
         210.00         582.14       -1158.65        1210.50        2705.98         476.59
         183.37           9.09       -1466.03        2480.78        2342.76         284.29
         231.85         131.97       -1018.30        1817.68        2386.77         298.79
         244.40          95.23        -284.76        1211.02        2284.06         234.11
         217.17          29.62        -731.89        1753.96        2281.10         206.92
         246.15          17.45         153.07         724.53        2408.77         310.46
         235.53         273.30        -759.18        1548.66        2251.62         205.87
         198.61         143.15        -817.29        1371.87        2653.62         452.67
         200.02         117.92        -134.58         948.44        2418.16         320.85
         222.36          30.40        -735.62        1549.26        2483.56         358.74
         182.17         138.03        -171.85         960.80        2440.80         336.85
         170.51          27.93        -400.86         559.67        3192.71         646.24
         227.76          91.92        -397.66        1305.67        2322.26         261.83
         179.05         180.42        -876.30        1523.64        2543.16         383.52
         164.95          30.56       -1295.77        2349.96        2300.26         232.32
         238.09         137.54        -609.03        1562.65        2220.70         169.12
         240.59         248.95       -1229.83        1845.86        2444.39         332.90
         270.14          28.15         -63.56        1119.71        2195.50         124.91
         167.66         109.28       -1380.87        2184.84        2469.06         355.46
         225.14          17.70        -976.57        2019.30        2264.38         227.86
         247.84          96.12       -1141.41        1962.41        2385.00         326.91
         163.93          61.51        1787.52        -715.73        2252.74         210.34
         224.48          63.91        1004.63         -64.17        2321.10         261.95
         260.69         189.06         972.82        -880.82        3008.22         588.42
         171.69          71.24        -673.76        1518.78        2462.00         345.59
         245.73          39.35       -1031.56        1818.66        2477.77         356.97
         209.73          62.03       -1481.38        2423.53        2336.05         277.87
         198.43         151.05       -1041.18        1847.31        2394.35         307.15
         174.90          43.72        -163.67         965.38        2529.62         395.20
         231.47          94.41          33.38         638.97        2551.74         409.21
         250.86         265.58        -797.23         839.57        2991.18         573.63
         184.93         152.41       -1159.47        1861.03        2511.05         366.28
         248.08          13.83        -700.51        1648.33        2340.23         271.39
         184.29           2.14       -1022.52        1937.45        2448.60         352.36
         195.45         339.32         529.59         288.50        2197.09         131.72
         188.59         114.51        -962.48        1453.87        2755.45         490.08
         235.58          79.64       -1173.47         331.14        4077.08         878.23
         148.00         255.41        1502.75        -569.42        2213.23         184.74
         233.05          79.96       -1032.19        1820.85        2448.30         348.51
         186.00         445.52        -949.45        1548.75        2319.14         270.02
         185.24         390.25       -1037.71        1634.76        2377.43         284.33
         177.19         293.99         871.04         -68.32        2276.06         231.02
         198.90          70.24        -774.69        1669.81        2385.71         290.76
         234.67         219.19        1341.80        -733.61        2487.90         362.94
         142.26          37.63          74.66         983.00        2312.41         270.84
         225.99          11.01         -71.92        1122.63        2262.27         171.65
         187.04         467.21        -420.67         534.23        2782.15         501.39
         153.61         203.52        -946.08        1909.38        2229.55         198.19
         191.86         194.58       -1459.78        2321.73        2301.57         270.08
         230.47         132.58         979.23        -115.66        2323.34         253.49
         191.48          31.91         219.32         453.53        2653.72         447.71
         226.50         133.06        -465.05         989.05        2666.38         452.70
         279.30          11.29       -1103.59        1889.55        2473.41         347.49
         213.78          68.35       -1276.97        2212.07        2332.73         275.89
         159.11          34.58        1441.21        -498.43        2413.50         330.90
         204.90          23.29        -638.48        1777.44        2182.81         104.10
         241.94          88.75       -1131.62        1837.83        2513.06         384.41
         163.55          49.31         219.97         607.66        2509.48         385.90
         185.10          48.30         122.35         814.87        2379.35         283.54
         171.87         263.69         487.77         181.60        2445.04         344.62
         209.30          51.37         142.77         824.77        2321.76         261.57
         231.22          14.17         929.68          57.74        2317.15         259.85
         164.17         775.81        -880.76        1296.05        2194.67         132.44
         212.01         257.97       -1093.06        1849.26        2323.79         261.87
         223.15          95.33         826.35         171.52        2233.61         161.56
         190.59          11.57         -90.43         811.41        2626.83         438.24
         262.92         203.52         207.66         468.84        2407.02         317.96
         198.13          74.22       -1463.78        2419.76        2321.64         257.07
         255.43         615.73          12.18         252.12        2414.49         333.55
         214.35          60.45        -778.37        1832.50        2221.05         162.60
         231.27          14.79         346.43         526.25        2431.22         346.42
         146.62          12.45         -93.43        1005.35        2478.96         369.05
         191.29          52.77       -1464.71        2217.12        2553.48         398.15
         184.36         239.05        -258.96        1063.26        2322.24         258.51
         189.42           6.22        -327.80         935.21        2746.92         480.56
         185.64         183.87         389.29         518.81        2272.36         212.44
         220.89         175.02       -1092.01        1439.56        2806.50         513.77
         192.21         189.64       -1288.29        1588.69        2867.70         528.91
         231.03         134.92       -1290.95        2085.15        2389.83         317.44
         215.70          31.64         853.80        -299.01        2747.83         496.40
         169.86         137.78         454.94         464.92        2322.47         272.02
         264.51          98.07       -1081.31        1650.24        2618.47         419.20
         195.45         416.40        -369.97          56.43        3251.64         662.44
         163.11         143.52         -70.88         834.12        2480.09         361.38
         227.55         120.28       -1464.65        1990.64        2676.13         461.98
         171.02         430.06       -1127.01        1649.50        2426.40         318.09
         220.44         221.24       -1420.37        1978.38        2550.26         398.94
         186.80         222.76       -1302.86        2201.31        2241.94         181.67
         254.01         143.09       -1251.84        1943.94        2460.76         359.24
         198.12         429.66        -103.57         394.24        2631.50         445.73
         233.18         218.02        -366.48         279.06        3186.17         638.83
         203.44          76.47         437.91         454.33        2377.83         302.63
         222.02         418.49        -276.31         510.85        2674.93         448.98
         200.35         104.40         392.09         435.03        2418.11         346.56
         168.59          72.86       -1270.24        2137.33        2441.42         333.60
         144.73         146.65         546.68         270.46        2441.44         347.57
         162.26         110.44         -13.26        1089.89        2200.62         157.98
         183.08         339.82        -245.64         765.01        2507.69         378.84
         221.01         271.96       -1443.64        2168.83        2331.82         265.35
         221.71          17.65         389.00         173.71        2747.86         497.51
         214.52         157.42        -599.42         890.01        2887.42         543.53
         246.20        1179.10         634.98       -1675.43        3165.11         646.51
         270.27         452.93        -443.80         892.93        2377.63         298.73
         199.76          40.81       -1226.67        2263.75        2272.33         231.99
         182.68         255.63       -1402.73        1638.51        2875.87         543.36
         180.42           3.55        -453.82        1267.58        2552.24         401.66
         168.38          22.27        -631.78        1779.53        2211.57         157.59
         238.58          36.23       -1084.11        1967.93        2391.32         303.31
         246.71         333.47        -712.23        1436.46        2245.56         164.57
         220.03         423.87       -1302.73        1990.90        2217.88         170.71
         202.80           6.85         271.09       -1654.57        4723.78        1010.66
         166.55         659.25         189.80         166.53        2367.83         300.69
         211.16         359.66         859.08        -474.88        2594.94         427.89
         266.45          37.39         430.61         421.81        2393.71         309.55
         140.84         109.26        3200.20       -2309.62        2409.29         330.77
         173.53           8.05       -1208.10        2322.14        2254.35         179.92
         189.33           3.02          69.79         937.68        2350.12         277.49
         171.41         464.52         -60.80         489.46        2485.38         371.76
         197.74         968.59        -383.42          77.73        2689.29         469.29
         221.68          26.26        -405.89         774.12        2933.78         554.57
         150.99          67.24        -677.56        1310.85        2698.42         470.52
         267.01         146.67       -1092.43        2009.23        2219.47         160.80
         189.82          81.31          73.10         874.21        2331.54         269.67
         202.94          49.71       -1252.16        2164.97        2384.52         302.50
         186.95           5.68        -418.40        1514.11        2261.61         211.12
         194.74         328.85       -1277.58        1952.37        2351.56         274.79
         186.13          14.83       -1223.56        2353.40        2219.15         179.20
         191.79          31.00        -526.44        1593.18        2260.44         205.80
         248.45         241.66        -167.92         714.39        2513.38         380.31
         200.13         201.25        -782.16        1599.14        2331.59         274.50
         192.02         173.87        -826.88        1299.31        2711.63         472.32
         256.20          56.59       -1470.68        2064.02        2643.84         447.73
         294.47          95.30        -497.72        1282.63        2375.27         296.76
         165.25         127.19         129.70         817.98        2309.84         239.80
         150.33          42.05        -175.72        1370.85        2162.46          64.33
         186.99         393.75       -1049.07        1688.35        2329.93         257.69
         195.93           2.91       -1160.56        1808.92        2702.76         467.53
         185.02         108.22        -106.90         500.69        2862.92         537.52
         169.22         693.54        -131.09        -128.59        2946.89         573.30
         142.01         310.14         606.00        -209.19        2700.99         470.31
         196.35          20.88       -1263.73        1817.16        2779.31         497.04
         190.36         610.16        -350.90         754.94        2345.40         302.27
         226.71           3.07       -1027.91        2112.49        2235.61         167.71
         219.01         351.30         145.73         489.94        2343.98         276.17
         225.18         238.02         423.44         463.65        2199.68         174.45
         170.75         131.35        2070.26       -1091.00        2268.61         202.17
         209.70         475.51       -1082.15        1715.40        2231.49         187.26
         194.25         100.05       -1160.33        2129.43        2286.56         229.75
         210.56          18.31        -210.71        1253.67        2278.15         207.99
         190.18         105.33        -660.76        1481.01        2434.19         329.23
         177.05          78.70       -1269.96        1905.46        2658.72         463.21
         261.54         127.18        -967.57        1760.34        2368.46         297.05
         189.09          59.67        -280.93         925.37        2656.76         446.36
         218.53          78.67        -559.37        1439.97        2372.15         309.06
         186.98          36.41       -1109.81        1987.74        2448.65         346.11
         187.88         816.32        -407.61         375.63        2577.73         415.27
         218.30         298.39       -1185.53        1541.49        2677.31         465.79
         161.69         772.33        -365.26         118.67        2862.51         541.53
         250.32          60.84       -1253.63        2245.99        2246.45         169.60
         149.25         170.61        -676.05        1659.96        2246.18         186.32
         173.77           3.79       -1249.30        2409.21        2212.47         159.82
         256.42         115.04       -1433.59        2271.56        2340.54         271.05
         173.22         835.16         558.27        -535.23        2518.54         376.34
         189.50         277.49        -973.77        1843.54        2213.19         116.61
         186.46         888.95        -344.50         571.76        2247.29         204.51
         201.10          79.00        -293.99         696.25        2867.60         534.76
         195.29           0.89       -1338.44        2379.59        2312.63         257.06
         171.35          60.61        -810.05        1927.30        2200.75         122.16
         261.43         200.99        -201.32         981.33        2307.52         253.35
         217.03         475.14        -788.21        1405.02        2241.01         180.73
         205.23         117.90        -185.19        1023.77        2388.25         323.78
         233.10         126.81        1156.52        -601.27        2634.79         434.18
         166.06          29.90       -1306.65        2392.06        2268.59         224.22
         204.62         109.04         142.50         178.52        2915.29         559.50
         224.70           7.85        -390.96        1211.04        2497.36         357.74
         230.98         632.56       -1375.55        1813.90        2248.06         207.48
         188.11           8.69       -1389.99        2453.97        2289.17         231.18
         230.20          45.78        -480.49        1479.67        2274.80         205.07
         218.11          27.39       -1345.17        2270.56        2379.08         299.94
         173.43          67.39         621.64          33.55        2653.95         448.66
         229.92         202.81        -981.76        1044.70        3054.27         601.32
         147.58         299.21        -232.06         890.60        2444.65         341.30
         226.00         194.87       -1396.06        2320.45        2204.71         154.34
         210.78         628.43        1126.17        -938.85        2523.42         395.46
         241.16         153.48         -83.92         975.80        2263.42         203.39
         201.26          17.53        -471.13        1625.99        2176.32          92.46
         169.69          21.79       -1421.20        2406.98        2372.72         288.09
         171.43         593.96       -1457.60        1906.61        2335.57         268.85
         247.95         685.07       -1030.11        1251.58        2395.45         318.05
         150.69          13.22         182.08         979.43        2224.55         155.27
         237.50         498.32       -1120.81        1460.97        2473.98         359.41
         225.67         155.35       -1162.55        1677.30        2654.19         444.98
         212.32         180.16       -1398.97        1808.18        2748.26         492.66
         197.37          35.04       -1453.66        2328.29        2442.92         340.66
         156.42         142.81        -371.04        1219.36        2402.43         304.91
         260.75          26.46         336.90         542.35        2383.52         309.35
         210.42          47.57           4.52         982.44        2305.00         238.36
         218.88          23.32       -1289.32        2133.16        2463.91         350.58
         158.74          63.80        -579.40         974.99        2931.84         550.03
         197.91         398.73       -1370.08        1906.50        2416.92         325.01
         195.23         221.86        2031.34       -1187.02        2288.55         211.73
         187.09         649.72       -1288.26        1756.49        2244.90         210.88
         168.56         259.64        -929.12        1823.12        2227.77         191.07
         263.37          42.79        -515.84        1499.43        2260.22         190.59
         241.36         531.87       -1135.66        1111.55        2800.85         506.55
         264.74         266.66       -1386.65        1732.71        2672.49         456.41
         199.35         130.57        1093.56        -190.28        2316.76         262.85
         206.34         325.50       -1046.71        1488.21        2576.60         405.90
         176.30          74.70         444.11         392.42        2462.42         349.98
         175.03         110.27       -1019.44        1912.72        2371.38         298.13
         214.97         130.04       -1342.04        2039.14        2507.86         366.45
         219.58         228.66         292.91          18.34        2790.48         500.24
         231.21        1309.65       -1215.55         426.60        2798.04         507.90
         275.38         248.66        -586.53        1200.84        2411.63         323.73
         183.85          30.68          34.09         909.64        2391.68         303.48
         159.83          65.87       -1344.00        2359.24        2309.04         251.02
         150.35         208.13         132.41         624.67        2434.41         345.78
         238.45         108.41        -721.40        1554.25        2370.25         294.96
         221.13         102.23        -511.34        1069.99        2667.95         446.80
         224.59         241.95        1597.15        -798.04        2284.32         242.93
         274.96         126.98        2811.82       -2042.75        2378.96         311.94
         130.06         385.25        1867.55       -1066.29        2233.39         185.71
         233.31           8.44        -656.45        1698.16        2266.49         224.88
         237.19          53.11         157.84         828.72        2273.10         220.60
         264.11         305.90       -1272.12        1730.69        2521.38         367.35
         153.86          83.49         161.56         857.94        2293.13         262.04
         163.43         158.88          55.02         460.58        2712.06         483.81
         247.51         179.16       -1065.44        1812.54        2376.20         296.14
         249.86          22.66        1121.80        -296.25        2451.88         306.66
         244.96         930.62        -724.59         597.12        2501.86         382.23
         258.12         130.20        -506.93        1341.35        2327.21         257.36
         212.34         261.21       -1359.66        2171.60        2264.48         178.14
         186.01         135.07       -1093.63        1795.30        2527.21         386.49
         167.38          65.57        -101.75        1038.22        2380.52         309.40
         204.18         246.14       -1194.11        2059.49        2234.27         180.78
         143.80          94.07          -4.42         872.91        2443.59         335.50
         175.79         458.71        -706.47         856.92        2765.01         486.60
         239.35           3.48       -1327.04        2208.91        2425.24         332.18
         182.50          24.99        -490.36        1365.96        2466.88         351.23
         196.92         316.24        -185.68         928.81        2293.69         247.23
         176.82         122.71        -122.46        1065.90        2307.00         251.16
         225.50         304.49        -284.80         880.05        2424.73         331.38
         160.60         273.39        -340.95        1090.91        2366.02         281.59
         194.64         236.80        -886.84        1657.31        2348.06         276.65
         192.44         111.84         -46.54        1092.38        2199.84         167.26
         187.49         273.56        -460.19        1291.22        2257.86         212.43
         241.02          39.88       -1091.11        1925.13        2435.06         339.13
         247.68         456.98       -1320.26        1878.22        2287.35         225.37
         246.80          35.73        -966.06        1987.83        2245.66         172.94
         251.37         101.01         141.97         827.19        2228.41         179.27
         162.02         223.27       -1027.53        1898.98        2293.21         230.75
         199.28          18.88        -743.45        1833.41        2241.83         224.65
         150.41         166.69        1501.79       -1055.51        2786.58         511.46
         200.37          10.80        -922.18        1977.45        2283.52         235.21
         209.75         222.00         520.57         378.01        2219.63         165.60
         251.80          11.23       -1418.74        2337.34        2368.33         283.56
         201.92         297.00        -328.63         704.98        2674.69         450.63
         202.19         106.68       -1248.87        1663.58        2826.39         518.20
         207.45          59.82        -652.44        1495.98        2439.16         341.05
         148.89         171.94        1117.26        -240.53        2352.40         291.37
         187.99          92.50        -838.68        1881.84        2226.33         171.32
         248.95          49.84       -1103.69        2077.99        2276.89         210.01
         216.39         104.92       -1459.81        2429.26        2259.20         202.78
         235.94         385.86       -1073.30        1408.50        2592.95         425.39
         195.01         109.32        1220.30        -375.04        2400.38         331.46
         175.46          34.21        2029.92        -975.29        2285.67         230.26
         265.84          31.14        -777.69        1391.82        2638.85         433.72
         246.41         119.59       -1266.95        2050.81        2400.10         323.89
         198.33         105.95        1216.90        -392.60        2421.40         323.35
         197.30          21.01         158.96         958.21        2214.50         152.14
         212.20          95.95        -325.01        1358.39        2208.44         129.16
         264.88         180.02       -1360.25        2098.02        2367.31         295.28
         283.03         131.64         371.82         425.35        2338.14         265.89
         241.26          27.01        -744.27        1669.90        2356.07         296.70
         236.40         205.57       -1136.00         573.88        3670.10         779.72
         254.67         290.38        -331.54        1022.57        2313.88         244.07
         207.21          66.26       -1300.90        1562.97        3014.44         582.09
         254.19         347.17        -290.54         335.53        2903.61         549.70
         207.04         261.81        -787.17        1510.75        2357.53         276.18
         223.51         190.31       -1269.06        2032.21        2372.98         297.91
         194.95         298.93        -286.97        1125.35        2217.69         145.03
         211.33         712.92         -26.38         241.49        2410.59         326.66
         232.80         252.40         -13.23         670.42        2407.57         315.61
         154.54          71.76        1120.95        -360.46        2563.19         394.66
         177.41         335.52         424.33         -21.78        2634.48         438.23
         220.17         285.36        -935.89        1229.45        2750.87         486.75
         194.43          59.03         156.28         847.30        2292.92         237.69
         198.84          53.08         180.74         535.58        2581.73         411.22
         216.27         250.43        -975.04        1844.55        2213.75         154.61
         187.66         207.62        -173.24        1125.77        2202.17         177.43
         221.72         319.17        -864.34        1534.02        2339.37         287.40
         245.03          41.39        -109.92         434.30        2939.16         563.72
         144.55          81.71         619.20         291.38        2413.11         321.16
         251.17          34.56        -244.08        1279.21        2229.10         155.25
         216.25         210.07        -393.38         720.95        2796.06         501.94
         178.84         159.40        -974.41        1761.49        2424.63         340.87
         140.01         288.20         603.45        -132.61        2650.91         442.69
         159.95         221.46        -924.38        1555.89        2537.04         392.75
         205.51          42.78       -1135.51        2256.43        2180.73         138.16
         162.85         190.14         243.61         353.87        2599.50         424.38
         206.87          12.92         167.98         500.88        2661.30         456.61
         219.05         200.05        -571.21        1305.93        2396.15         301.23
         217.47          82.91       -1405.84        2142.43        2512.98         371.01
         218.89          68.84       -1175.99        2221.75        2216.49         172.75
         213.85         539.70       -1068.53        1551.19        2313.75         237.34
