    #Hard_water    #Hard_water
   #Erot(W)cm-1    #Speed(m/s)
         438.74         504.63
          52.41         628.63
          74.59         601.06
         950.03         597.62
         535.73         770.13
         257.98         265.76
         134.11         663.50
          62.61         332.20
         481.62         484.99
         159.29         719.64
         334.71         582.72
         189.69         436.36
          76.66         564.75
         522.75         483.66
         379.20         893.17
         322.98         236.52
         141.97         320.06
         637.78         556.37
        1125.53        1009.74
         255.00         312.50
          50.86         444.42
         138.55         447.50
         246.58         429.14
         137.93         471.06
          33.43         672.58
        1042.54         232.17
          77.61         699.71
         236.70         343.74
         324.93         451.21
         917.88         404.13
         440.02         530.01
         255.38         435.07
         470.41         541.30
         423.61         383.24
         145.68         581.46
          74.88         198.27
          31.66         312.81
         479.99         536.65
         270.25         512.14
         279.19         676.73
         318.30         392.91
         297.38         190.28
          98.27         718.41
         126.11        1114.45
         526.09         268.27
         370.86         226.41
         261.17         555.13
          43.73         521.44
         280.26         558.87
         316.92         478.53
         339.51         756.72
         815.22        1138.41
         323.10         472.04
         245.33         454.61
         794.05         320.87
         171.03         740.75
         206.73         446.34
         383.95         771.76
         293.39         434.66
          33.65         258.42
         357.59         517.01
         491.27         706.61
         395.67         399.74
         472.23         601.57
         280.02         396.60
         238.98         188.80
         251.08         292.41
         502.56         160.62
          28.18         590.01
          14.65         412.66
         299.55         292.93
         943.84         488.99
          84.04         403.48
         949.71         480.17
         416.73         418.05
         207.09         288.43
          19.75         342.36
         209.73         354.16
         182.42         764.79
         257.90         605.75
         129.08         348.22
         100.62         341.83
         326.25         446.76
         509.04         318.90
        1203.37         487.51
         176.36         454.18
         457.12         508.19
         486.59         409.07
         509.76         473.32
         391.53         430.82
         455.57         343.23
         877.78         209.97
         446.49         379.45
         153.54         417.76
         573.97         823.14
         377.27         824.74
         810.94         493.92
         455.62         396.22
         282.05         436.61
         496.03         361.94
         377.41         811.08
         850.51         590.45
         231.14         401.04
         177.09         518.61
         180.54         612.33
         202.23         214.41
         500.33         239.19
         102.68         678.70
         101.23         704.34
         446.37         473.24
         106.09         622.77
         547.38         718.11
         231.57         200.79
         281.95         750.00
         133.94         277.26
         445.32         279.47
         445.59         633.04
         307.18         338.49
          71.93         517.34
         550.66         427.20
          26.09         391.05
         188.35         282.34
         679.23         155.41
          94.88         423.84
         331.54         572.33
         364.09         151.55
         161.83         236.44
         343.61         894.04
         297.70         645.93
         585.55         548.89
         538.25         126.25
         242.36         243.36
         798.05        1115.58
         821.60         808.36
         453.24         457.53
         764.23         458.18
         349.50         609.12
          25.15         587.89
         527.15         635.48
         258.17        1109.48
         270.49         445.50
         607.48         858.91
         255.25         354.65
          62.77         289.18
         530.69         880.92
        1092.46         561.29
          52.54         288.80
         285.19         409.79
         180.53         560.39
         293.04         493.57
         360.37        1103.92
         403.89         690.87
         163.96         622.79
         476.56         335.41
         368.98         228.53
         153.01         769.27
           5.47         325.96
         485.86         561.50
         393.59         484.25
         265.20         625.55
         712.09         637.22
          55.47         903.78
         388.79         555.96
         149.42         558.41
          32.23         613.32
         141.76        1445.53
          98.72         260.52
         181.95         520.37
         252.16         227.20
         530.68         441.22
         165.30         624.88
        1157.13         601.10
         459.36         772.69
         332.25         257.47
         211.22         779.19
         166.76         436.46
         249.18         630.57
         105.18         248.84
         262.32         433.21
           7.94         297.36
         189.68         342.33
         209.81         289.50
         152.12         711.62
         277.50         434.39
         230.17         349.82
         565.14         381.84
         551.31         275.87
         210.96         530.84
         149.25         524.53
         208.67         686.80
         380.26         609.77
         646.53         442.29
         337.44         471.12
        1305.56         376.59
         261.11         346.70
          20.23         556.90
          63.46        1039.96
         257.14         368.06
          78.53         187.30
         119.54         706.28
         273.16         598.13
         261.57         257.90
         732.46         504.07
          40.04         533.72
         101.55         664.88
         182.12         562.93
         411.57         236.08
         475.04         915.40
         998.83         170.49
          51.56         617.03
         290.81         670.32
         761.47         362.69
         235.39         448.20
          89.15         658.25
         235.66         423.03
         136.67         151.73
          52.47         269.65
          85.10         740.26
          86.29        1017.89
         365.01         189.79
          10.82         668.76
         491.85         774.23
         420.43         616.71
         276.72         742.67
         287.36         227.00
         473.94         805.13
         384.00         944.17
         105.32         540.91
         397.59         847.41
         309.12         264.50
         813.78         527.34
        1030.71         621.85
         465.45         394.27
         615.30         336.15
         396.82         316.39
        1017.08         315.55
         233.48         342.03
         263.23         474.45
          95.27         402.91
         634.30         199.55
         282.54         792.01
         537.33         626.99
         312.69         452.59
         185.66          90.72
         703.81         360.96
         362.36         457.40
         186.23         843.86
         183.03         123.13
         668.61         393.70
         546.57         344.33
         446.08         719.98
         317.34         479.63
         135.24         614.78
         418.33         369.89
          99.75         396.52
         368.15         410.16
         133.95         565.00
        1053.72         877.58
          22.20         552.94
        1064.33         381.66
         158.59         367.44
        1010.40         325.27
          68.90         560.01
         393.94         676.96
         356.34         557.20
         403.61         242.66
         336.14         232.43
         199.57        1082.03
         200.40         589.21
        1168.68         602.65
         195.34         565.93
         339.86         392.79
          99.32         420.60
          27.55         687.42
        1401.15         434.57
         205.98         345.24
         116.91         273.04
         146.06         220.33
         180.23         637.40
         609.42         388.02
        1181.88         429.99
          49.30         162.82
         301.94         495.56
         291.62         557.06
         372.42         583.02
         415.44          95.55
         527.87         596.76
          98.35         495.65
         192.00         595.01
         393.26         185.55
         621.06         467.51
         260.07         518.03
         477.38         547.79
         200.07         266.10
          90.32         420.66
         171.39         398.25
         190.41         411.99
         139.47         414.48
         186.39         636.57
          81.12         527.77
         219.87         352.02
         242.75         443.96
          52.45         561.88
         278.51         525.47
         134.02         781.56
         233.09        1061.32
         167.46         589.66
         247.42         578.14
         302.90         604.11
         160.84         699.88
         119.67         821.07
         143.00         286.44
         320.53         436.72
         226.23         433.64
         293.91         505.05
          17.16         641.85
         145.38         638.48
         601.12         108.69
         594.33         353.03
          87.08         289.21
        1051.71        1089.81
         302.89         152.42
         177.52         360.31
          72.40         685.76
         535.02         717.88
          72.07         217.48
         281.24         851.90
        1244.10         452.83
         480.69        1152.58
         318.30         658.15
         131.93         280.57
         423.45         679.60
         188.06         552.97
          65.56         355.81
         212.30         457.90
         217.22         249.04
         382.19         502.37
         180.61         284.79
         522.43         622.76
         109.40         555.55
         153.58         221.91
         758.32         473.80
          71.15         583.06
         336.83         523.79
         506.97         390.22
         575.77         630.71
         252.45         309.16
         193.95         215.61
         354.34         168.79
          90.94         697.25
         302.46         215.23
         371.86         674.36
         666.63         459.72
         949.93         933.07
          13.03         358.62
         278.23         273.19
         167.84         382.91
         110.11        1059.34
         811.30         802.31
          34.47         418.98
         291.29         553.65
          32.43         338.91
         602.92         519.55
         276.72         137.77
         167.65         488.10
         754.71         372.03
         109.12         944.65
         608.98         445.23
         792.89         608.56
         923.88         596.27
         147.67         156.02
         340.64         245.23
         247.57         467.91
          75.48         282.80
         129.70         465.73
         887.82         358.50
         113.34        1042.02
        1171.01         910.81
         287.67         293.39
        1360.98         418.06
         507.68         253.39
         218.05         491.69
         271.99         145.25
         389.42         409.72
          42.02         328.05
         448.57         755.79
        1285.71         525.72
         214.29         675.49
         656.49         957.99
         384.98         393.46
         926.80         172.45
        1123.40         397.19
         544.22         572.52
         565.94         709.10
          71.67         253.97
         706.88         897.10
         136.13         669.84
          95.82         672.34
         151.25         466.78
         463.67         579.25
          77.47         418.55
         327.51         355.39
          50.83         432.29
        1306.74         324.35
         583.96         263.74
         183.27         805.57
         430.53         277.60
         676.23         814.74
          68.37         532.47
         538.85         687.35
         168.82         354.60
         170.43         567.44
         483.05         177.45
         692.85         112.39
          76.70         484.42
          71.88         605.87
         601.87         868.70
         325.42         388.42
         905.61         514.55
         473.11         916.14
         449.25         189.63
         131.34         357.04
          13.05         361.05
         146.90         544.82
         104.84         316.04
         161.56         227.17
         191.15         185.98
         227.08         583.04
         916.92         402.65
         244.90         420.36
         475.67         165.89
         142.66         293.04
           5.96         230.34
         312.67         378.86
         362.23         944.47
         485.79         396.00
         222.86         935.40
         622.84         323.79
         980.77         205.66
         261.85         244.69
         253.70         209.55
         593.47         331.86
         225.70         608.85
          41.54         490.30
         159.45         566.48
        1598.87         236.55
         266.69         637.66
         639.29         617.71
         312.94         380.18
         396.95         813.63
         406.21         647.18
          90.76         703.02
         180.36         216.35
          21.37         429.21
         489.87         203.80
         300.83         922.55
         329.82         263.90
         161.64         644.53
         351.45         334.96
         218.92         250.32
         330.90         609.49
         271.21         624.02
         712.55         322.00
         157.04         728.19
        1003.53         452.66
         738.66         200.37
         273.78         516.11
         159.08         984.91
         213.93         568.01
         516.45         745.14
         386.94         522.51
         313.74         465.78
         606.33         489.87
         340.39         563.22
         317.31         516.83
          82.95         856.67
         170.31         656.66
         483.82         249.74
          97.73         626.38
          53.97         673.50
         352.70         769.62
          41.25         374.49
         443.54         506.19
         415.94         442.19
        1017.15         345.61
         236.86         432.50
         735.91         634.85
         155.63         508.72
         134.57         464.89
         615.78         440.01
         222.30         805.35
         192.21         450.52
         433.43         400.50
         157.03         212.13
         270.13         518.02
         413.17         436.47
          91.00         122.93
         984.48         426.30
        1725.27         577.35
         264.21         507.95
         710.42         547.01
         203.32         336.66
         123.12         489.07
         413.16         652.49
         804.37         733.40
         214.82         456.06
         132.66          72.87
         338.71         342.46
         354.25         335.85
          49.30         533.38
         109.24         416.78
         117.88         236.23
         989.84         414.43
         150.22         827.50
          60.26         448.99
         741.93         446.61
         143.22         668.28
         108.06         494.70
         396.40         300.21
         794.95         677.53
         969.09         490.12
         230.55         428.33
         226.08         715.91
         268.65         267.80
         108.25         537.67
         136.34         358.19
         218.99         264.66
        1384.90         174.71
          37.22         402.22
         343.94         639.86
         505.12         217.02
         765.03         397.22
         243.89         331.41
         316.14         262.54
         369.06         672.87
         779.78         488.27
         250.53         520.12
         180.08         594.43
         229.11         344.45
         237.08         314.00
         214.04         325.31
         876.83         400.60
        1307.18         306.59
         960.62         439.22
         742.98         165.27
         186.27         483.37
         230.45         592.44
         229.08         489.37
         251.26         579.20
         400.66         373.73
         305.92         800.06
         310.70         421.41
         842.95         562.54
         250.86         802.89
         802.86         238.73
         417.76         200.23
         161.92         394.87
         164.41         227.81
         515.99         712.75
         418.64         432.37
         199.55         776.61
         138.91         619.04
         202.94        1023.59
         969.59         303.66
          98.76         729.24
         588.51         636.49
         593.38         376.65
         716.04         309.38
         389.67         341.04
         212.31         154.17
          92.44         483.51
         384.21         457.69
         401.42         145.57
         711.42         383.66
         835.19         430.33
         505.42         364.84
         166.82         170.28
          94.68         400.67
          65.26         546.16
         179.24         588.83
         280.76         300.60
         478.29         688.96
        1493.04         312.44
         230.22         899.47
         158.89         279.63
          53.74         185.86
         599.41         671.00
         432.50         540.22
         356.78         398.12
          63.98         665.26
         337.48         331.84
         683.49         848.94
         285.03         198.99
         413.30         506.92
         251.15         226.19
         117.31         476.18
         244.50         786.38
         588.72         741.45
         189.42         565.16
          29.74         577.98
         471.91         302.98
         159.74         332.77
         678.45         406.88
           7.43         554.83
         141.83          96.67
         788.58         644.67
         381.33         524.36
         158.89         359.74
         532.18         371.79
         129.34         821.94
         774.88         667.59
         257.76         393.81
          61.56         394.97
         366.36         305.56
          91.55         624.81
         583.66         431.45
         165.26         672.23
         649.69         753.66
          70.56         227.42
         315.85         324.63
         469.47         348.25
          91.87         488.02
         679.37         592.69
         304.39         204.27
          59.05         317.21
         313.72         393.89
         585.62         342.23
         160.43         197.48
         663.43         496.93
         883.76         560.41
         246.26         416.14
         496.20         924.90
          27.57         215.11
         307.40         665.30
         294.01         545.49
          71.84         325.14
        1096.10         846.79
         913.92         232.51
         272.12         842.05
         464.98         330.72
         432.03         446.53
         361.39         816.05
         853.63         677.58
         251.82         375.09
         915.33         343.53
         528.53         360.68
         253.64         775.37
         199.93         354.66
         892.51         655.25
         394.81         859.93
          65.41         406.36
         959.45         658.47
         963.34         834.00
         445.46         335.90
         151.98         878.62
         794.71         318.90
         141.95         623.91
         332.13         302.20
         576.69         173.32
         606.32         201.78
         183.05         567.48
         114.00         255.89
         179.45         605.82
         232.61         437.39
          53.73         480.74
         234.19         792.24
         567.80         357.39
         173.88         347.01
         197.01         685.32
         148.14         487.93
         361.81         683.81
         376.70         268.18
          32.42         207.01
         251.87         581.05
         329.53         596.24
          71.89         817.68
          98.67         699.01
          73.07         641.77
         433.71         706.21
         199.34         562.52
         254.77         320.32
         465.73         375.09
         650.14         432.18
         504.72         454.66
          62.46         166.04
         710.21         823.16
         452.64         822.62
         834.36         229.02
         237.49         701.25
         306.38         388.07
         146.84         383.10
         406.71         401.94
         147.73         372.36
         635.73         346.64
          56.49         414.68
         577.60         483.23
        1294.29         680.31
         158.25         568.38
          75.82         396.82
         148.50         328.90
         249.61         840.41
         281.73         454.65
        1072.26         547.98
         274.16         283.79
         508.30         417.47
         437.73         656.08
         478.57         278.74
         602.66         527.60
         218.27         215.11
         132.82         407.95
         343.46         462.34
          47.70         328.59
         623.18         755.42
         627.53         647.65
         182.29         169.62
          83.72         957.78
           1.96         672.19
         769.57         656.66
         230.18         290.19
         292.13         271.99
          54.18         530.79
         125.82         581.12
         196.42         424.97
         168.55         671.41
         284.20         456.89
         201.40         358.16
         366.95         179.40
         708.91         516.26
         333.73         328.68
        1512.25         512.84
          96.59         947.86
         109.04         776.29
         244.31         293.04
          96.60         580.49
          73.43         390.17
         124.47         229.98
         305.62         392.44
         974.53         356.13
         177.87         451.96
         343.52         423.99
         123.47         442.96
         535.76         215.19
         296.94         240.52
         695.78         535.27
         116.58         367.86
         343.55         370.30
         432.33         654.06
         394.69         706.83
          49.97         379.95
          53.69         548.43
         458.14         437.72
         146.12         673.65
          33.45         386.80
        1142.70         457.57
         583.16         153.36
          93.58         779.14
         564.06         711.28
         603.75         710.38
         290.14         558.00
         730.12         595.19
         249.10         532.75
         172.72         450.53
         181.04         465.76
        1382.80         682.70
         337.21         352.12
         153.01         279.32
         544.08         677.74
         256.10         566.63
         656.73         371.50
         402.94         495.34
          82.35         327.30
         457.84         641.39
         976.44         699.62
          53.46         569.72
         112.37         837.63
         886.12         592.66
         290.20        1320.00
         136.77         930.22
         523.31         513.02
          52.68         164.53
         163.45         618.41
         626.34         221.56
         407.57         674.78
         300.76         473.37
          64.05         675.83
         376.76         354.28
         207.59         272.53
         406.02         816.33
         468.42         325.30
         218.25         183.37
         472.48         579.15
        2133.99         331.32
          74.25         501.71
        1239.63         848.19
         496.47         625.74
         132.64         487.21
         115.94         283.84
         706.61         249.91
         523.24         717.98
         431.46         488.72
         136.65         216.54
          61.58         275.63
         430.09         225.29
         342.09         750.37
         868.83         802.58
         531.45         558.13
         797.61         751.10
         712.13         238.08
         721.93         785.34
         518.66         201.53
        1059.63         808.05
         355.16         456.95
         894.66         363.65
         317.22         187.94
         174.69         183.98
         226.90         276.67
         153.43         200.82
         506.29         831.13
         131.71         286.68
         375.11         428.57
          53.51         376.37
         188.63         230.43
         162.55         459.56
         105.07         574.04
          88.49         312.73
         243.62         632.70
         444.97         298.83
         201.62         311.00
         333.85         555.77
         412.59         262.05
          16.85         333.01
         220.18         367.41
         656.12         596.30
         872.89         541.92
         234.65         329.12
         185.98         107.56
         163.33         476.32
         348.00         343.38
         216.87         309.21
          89.30         543.74
         334.77         503.66
         309.45         593.50
          41.24         372.03
         223.27         257.86
          90.16         745.85
         503.42         386.00
         645.77         384.96
         148.26         876.89
         504.03         456.61
        1017.28         504.40
          77.75         311.56
         630.88         169.35
        1135.98         434.08
         835.24         464.46
         573.77         759.98
          76.86         595.62
         215.97         450.84
         242.72         470.63
         252.71         291.74
         149.77         340.19
          55.12         448.28
         220.78         612.53
         134.23         257.15
         424.24         196.77
         430.17         221.86
         229.59         189.68
         464.50         262.60
         345.73         603.26
         713.58         607.94
         574.53         174.86
         575.29         401.99
         584.77         495.46
         131.28         369.44
         499.46         423.50
         207.09         975.71
         393.37         227.22
         444.78         195.68
         288.75         297.11
         571.41         605.61
         179.03         760.14
         218.03         396.60
         581.37         189.88
         490.18         293.00
         325.52         302.20
         110.70         516.01
         548.61         564.21
         372.15         473.13
         572.72         407.04
        1416.36         569.17
        1221.47         576.53
         838.56         455.42
         300.34         366.71
         932.13         293.08
        1180.15         270.12
          87.12         412.50
         716.64         165.19
           6.45         476.87
         302.92         222.15
         481.63         322.70
         123.13         275.48
         151.06         618.64
         361.96         670.81
         187.07         725.76
          53.21         524.14
         608.08         397.69
         272.94         489.96
           1.25         476.92
         781.73         401.22
         170.49         584.64
         228.11         503.30
         390.70         756.96
         237.60         255.85
         377.11         287.36
         244.90         759.29
         392.70         805.01
         794.70         506.30
         810.27         436.93
         494.61         688.71
         842.89         698.18
         614.32         716.27
         400.08         772.87
         137.17         540.74
         795.12         806.64
          81.28         376.14
         669.78         382.96
         428.84         527.03
          46.23         666.81
         379.04         315.37
        1279.42         518.46
         466.41         337.72
         482.81         584.20
         308.88         381.37
          66.51         391.21
         839.83         274.73
         128.09         297.17
         769.93         268.82
         241.04         725.40
         328.41         512.37
         289.07         669.86
         443.77         495.16
         293.74         560.13
         363.12         381.30
         284.26         573.45
         126.26         436.04
         268.47         385.05
        1195.93         245.49
         251.98         366.02
         375.47         269.15
         116.13         461.79
         621.05         676.44
         492.60         298.21
         506.02         776.39
         121.20         359.57
         156.62         414.71
          53.24         570.88
         464.26         324.17
         466.26         166.66
         442.07         555.54
         668.92         546.56
         519.38         942.93
         327.27         823.44
         169.98        1061.76
        1202.42         309.09
         161.49         854.96
         273.53         376.44
          69.18         786.55
         727.21         332.68
         107.32         514.51
         100.25         215.98
         378.89         343.75
         857.64         344.30
         761.93         657.52
         636.33         199.61
         226.61         315.20
          55.73         198.73
          77.01         719.76
         486.68         784.87
          58.77         148.82
         198.11         251.98
         584.80         398.37
         349.30         469.66
        1064.59         636.37
         111.37        1078.52
         260.31         430.31
         517.92         370.21
         935.42         301.27
         602.20         401.47
        1140.19         576.47
         406.70         817.00
         383.68         276.28
         199.74         412.93
         186.58         619.98
         439.09         595.36
         549.40         225.53
         396.51         446.00
         349.76         521.91
         113.30         502.67
         384.08         604.28
         167.97         520.45
         351.03         408.25
         584.20         515.14
         907.51         159.63
         266.98         379.53
         950.21         353.32
        1161.13         905.35
         379.45         345.49
          43.06         126.28
         403.63         416.47
        1133.23         125.49
         167.98         143.76
         378.41         656.08
         284.95         491.67
         590.14         600.12
        2798.24         290.76
         415.36         449.74
         168.94         403.34
         130.93         421.15
         223.33         388.41
         282.32         597.11
         167.98         736.52
         141.12         640.46
         772.28         376.85
          94.68         400.82
         241.85         921.41
         168.35         606.95
         112.23         281.65
         278.91         379.82
         242.23         534.34
         521.14         473.55
        1061.35         495.06
         270.31         403.91
         299.37         474.82
         594.30         810.09
         672.52         357.65
         598.02         297.18
         364.30         370.30
         844.50         367.84
         265.75         387.51
         378.42         692.21
         460.85         329.54
         363.04         351.85
          75.55         218.01
         275.78         382.17
         358.47         388.77
         455.57         250.35
         430.88         488.92
         534.26         596.86
          70.92         464.73
          91.88         777.73
         640.12         632.79
          53.57         547.53
         836.34         298.71
         222.55         374.82
         660.59         499.52
          14.15         291.31
          27.05         558.11
         417.88         585.77
         341.99         670.04
         952.54         711.97
        1566.41         377.52
         610.03         305.23
         266.78         741.66
         180.25         372.75
         269.50         554.46
         629.35         614.55
          44.72         511.01
         222.22         322.75
          59.86        1111.94
         338.76         373.84
          78.15         440.02
         682.71         354.06
          32.70         381.59
         279.94         184.50
          95.93         171.59
         393.05         488.52
         142.78         296.67
         497.77         548.39
         145.56         416.87
         144.54         721.12
         255.99         815.31
         366.35         621.35
         525.00         626.60
         371.63         675.93
        1278.96         287.99
         264.58         452.21
         531.89         480.47
         431.41         130.63
         179.70         324.94
          13.86         297.65
        1053.52         436.11
         248.76         330.30
         894.33         174.74
          91.29         684.43
          75.52         289.44
          91.57         193.54
         105.56         176.04
         142.16         326.98
         355.34         346.60
         166.75         803.88
         332.85         389.50
         188.87         447.15
         534.64         955.57
        1094.85         328.13
         388.66         676.80
         114.66         376.08
         626.55         392.32
         398.72         308.28
         387.12         267.57
         112.25         432.05
        1854.23         249.57
         234.87         301.29
          40.35         423.85
         239.34         629.62
         394.01         338.62
         337.20         388.05
         727.61         548.99
         393.91         324.00
         409.05         123.75
         536.57         116.66
         403.77         638.14
         134.13         294.19
         399.07         398.36
         409.89         399.38
         448.94         596.55
           6.01         437.64
         589.28         394.53
         320.69         409.59
         430.07         258.08
         566.46         610.28
         565.35         162.74
         210.76         280.69
         728.60         383.73
         731.25         456.53
         275.84         293.22
         459.69         631.38
        1050.75         526.23
        1124.28         306.53
         168.43         449.17
          63.35         253.68
          90.36         337.67
         465.17         808.47
         922.93         747.60
         286.49         825.43
         549.03         476.22
         205.31         644.75
         385.65         196.24
         407.87         328.83
        1869.07         675.32
         282.31         331.90
         608.49         878.14
          36.37         809.56
         195.16         196.07
          60.18         641.23
         470.63         188.23
         550.88         633.63
         333.32        1099.03
         428.84          86.10
         349.59         558.71
         858.52         368.90
         246.19         778.36
         383.27         162.79
         267.65         322.39
         818.44         371.47
          57.53         516.35
         115.42         494.72
        1172.28         426.11
         148.87         406.93
         258.40         849.01
         356.41         803.90
         359.44         466.49
         380.16         738.81
         324.07         529.59
         120.32          99.35
         476.95         578.82
          33.49         336.71
         994.08         380.71
         671.25         273.68
         323.72         531.84
          71.25         468.63
          69.95         569.29
         424.57         437.49
         485.62         790.46
         194.42         604.78
          98.08         524.76
         185.24         556.02
         348.52         434.69
         102.51         395.23
         280.96         386.95
         212.21         166.53
          65.43         620.19
          51.16         811.58
         177.23         356.36
         275.19         282.11
         493.82         521.64
         431.55         876.08
         642.31         741.99
          52.49         466.55
         754.58         613.36
         623.52         623.63
         560.13         227.67
         663.13         546.94
         355.75         326.48
         464.81         542.98
          73.97         788.82
         961.73         442.76
          70.25         865.59
         301.05         524.92
          38.87         298.89
         157.22         296.97
         607.77         330.76
         319.53         701.80
         221.76         696.03
         301.53         292.45
          80.37         503.39
         693.82         341.73
         748.10         391.54
         337.78         302.22
         166.03         252.81
         206.14         495.93
         812.27         614.10
         675.89         303.15
         331.96         279.04
        1080.74         547.71
         299.38         373.37
         994.91         163.75
         593.22         102.43
         368.21         650.44
        1375.22         221.27
         667.39         165.29
         508.58         437.60
          43.27         412.72
          57.04         376.12
         774.72         521.87
         698.88         419.73
         470.09         654.54
          63.63         374.48
         129.69         526.61
         769.44         629.21
         559.76         682.58
         254.62         474.83
         246.24         242.27
         886.75         307.53
         282.02         452.52
         991.59         613.67
         269.35         728.42
         370.39         411.11
         387.08         481.11
         160.59         820.63
          71.51         174.72
          89.72         944.13
         432.00         300.48
         532.82         681.44
          33.29         235.35
         292.43         208.61
         258.70         662.61
         179.06         250.88
         182.61         546.37
         209.82         708.09
         192.09         878.67
         880.45         407.36
         232.99         352.28
         175.52         466.55
         127.64         310.36
         238.71         241.14
         655.12         595.25
         518.03         742.39
         594.52         398.27
         826.40         595.54
         274.92         450.17
         270.24         313.22
         391.01         481.00
        1995.93         397.02
         243.00         569.07
         230.38         401.20
         482.06         625.43
         614.64         322.00
          37.35         384.24
         447.97         525.80
         661.56         222.15
          51.18         572.82
         368.28         260.97
         320.59         402.24
         103.57         639.72
         172.65         167.34
         270.43         338.98
          21.27         414.83
         284.55         585.93
         106.32         430.79
         427.87         620.73
         321.07         401.27
         804.78         298.17
         330.45         469.42
        1176.67         438.81
         291.10         412.91
         112.34         569.54
         172.18         676.29
         350.24         378.95
         359.85         156.87
         690.46         147.03
         899.79        1230.64
        1457.58         299.06
        1559.17         551.59
         466.67         707.10
         506.12         495.32
         122.92         406.59
          46.99         356.47
         410.79         575.17
         414.13         182.99
         220.27         630.03
         134.25         342.75
          55.05         311.16
         464.50         825.33
         145.82         262.07
         198.48         775.52
         221.08         912.31
         389.58         526.85
         493.12         453.36
          49.24         739.01
         328.55         840.43
         698.57         407.73
         232.11         509.63
         460.78         350.56
         169.08         300.78
         190.03         690.67
         573.34         423.13
         306.28         459.46
         483.88         597.98
          40.71         659.90
         194.13         258.46
         299.38         631.93
         805.78         370.09
         372.83         359.44
         102.12         591.11
         181.71         667.52
         107.73         243.02
         655.23         756.92
         290.91         573.02
         467.27         538.36
         105.53         223.36
         107.30         429.38
         321.96         797.36
         311.45         567.42
         416.87         238.86
         350.64         604.52
         331.07         678.28
          71.82         502.90
         402.83         507.01
         126.27         312.17
          49.35         890.04
         275.28         297.12
          92.57         387.17
         322.06         449.18
         748.15         735.76
         201.84         537.19
         275.02         473.30
         507.86         213.92
         221.38         631.70
         962.84         295.40
         310.03         254.56
        1352.48         440.20
         463.11         567.57
          41.80         309.18
         208.21         630.31
         639.66         257.69
         442.76         333.98
         574.26         670.50
         710.41         553.68
         145.54         487.76
         293.97         159.93
         407.83         269.22
          99.88         295.97
          29.53         758.99
         185.43         490.43
         154.06         648.14
         150.12         462.92
         632.95         358.16
         271.27         769.20
         636.56         289.17
         135.92         642.30
         338.84         411.66
         395.49         418.26
         894.50        1116.65
         125.25         640.97
         188.31         307.00
         679.15         175.77
         378.77         305.21
         803.61         222.92
         121.24         609.77
         129.87         693.14
         532.52         549.34
        1458.47         687.18
         477.19         873.60
         473.36         403.61
         256.98         268.87
          83.49         426.24
         266.06         456.02
         679.17         698.18
          55.49         374.09
         649.65         477.88
         198.66         345.73
          84.51         365.73
         318.87         275.70
         535.01         195.69
         343.47         420.90
         954.45         907.46
         254.96         189.66
          14.35         574.41
         111.15         515.00
          40.97         386.65
          36.85         392.48
         121.33         369.44
         300.99         554.76
         227.02         606.16
         542.52         520.55
         233.45         415.09
         917.63         517.25
         132.05         547.59
         255.68         356.24
         115.28         538.53
         330.64         324.81
         190.34         983.96
         559.34         245.53
         310.65         316.98
         104.31         461.46
         155.49         440.11
          62.30         469.44
          91.51         775.23
        1224.39         587.76
         184.68         258.31
         414.71         253.36
         167.24         863.09
          66.07         444.33
         141.31         269.61
          66.33         625.89
         535.83         499.06
         111.41         485.32
         138.01          77.18
         150.01        1094.92
          57.87         464.70
         160.81         944.52
         397.27         535.61
         913.87         361.46
         515.39         309.01
         396.39         567.60
         498.21         400.35
         212.82         228.79
        1231.24         487.30
         256.29         351.37
         436.48         288.07
         139.28         650.40
         122.56         595.12
          15.19         327.62
         240.47         544.80
         677.20        1119.88
         329.67         723.60
         100.29         440.33
         338.87         265.01
        1619.38         275.08
         445.92         837.25
         219.25         258.78
          49.20         566.12
         624.98         666.12
         431.49         310.55
         207.10         843.96
         340.93         268.08
         312.26         530.25
         413.06         743.02
        1405.83         448.58
         246.03         686.75
         192.51         473.06
         439.21         667.35
         157.14         146.73
         342.46         303.20
          73.56         231.75
         504.77         420.20
          71.12         452.49
         151.40         614.98
        1149.31         414.19
         445.76         363.73
         291.27        1095.05
         406.65         272.43
         133.46         822.44
         259.34         461.86
         479.12         534.14
         105.40         305.50
        1090.33         355.82
         351.66         639.09
         171.22         196.74
        1130.08         670.89
         547.29         553.66
         332.50         891.72
         254.90         363.78
         210.03         189.24
         175.40         789.72
          15.19         710.64
         366.02         137.11
         271.72         762.34
          23.18         304.90
         387.98         547.61
         879.66         179.65
          75.30         305.46
         291.03         428.42
         152.55         343.71
          74.64         464.10
         726.56         817.05
         247.39         544.87
         444.43         808.16
          89.81         253.19
         277.63         765.07
         187.22         501.08
         618.87         716.94
          26.06         282.43
         613.37         690.06
         672.45         805.40
         360.90         307.59
         609.54         366.41
         221.75         218.38
         197.31         706.86
         151.36         306.63
         677.61         590.51
         894.00         878.45
         447.05         572.22
         104.92         252.14
         374.30         383.22
         142.89         606.48
         167.45         417.68
         268.60         798.10
         672.22         405.23
         498.35         541.49
         866.77         543.14
         211.57         831.97
         236.98         616.20
         311.29         663.24
         257.42         334.73
         498.14         104.96
         855.50         567.49
         527.73         422.83
          45.94         284.93
         296.54         612.45
         632.26         611.13
         183.81         199.03
         121.55         772.82
         120.50         210.40
         397.11         530.78
         826.27         353.11
         344.10         664.33
         273.88         723.13
         125.23         369.86
         463.28         497.52
         107.83         331.42
         205.94         658.14
         102.91         618.59
         393.74         651.59
          77.07         448.04
         365.68         469.48
         230.10         356.51
          67.78         454.47
         688.75         359.34
         375.13         449.42
         629.37         549.26
         128.88         758.55
         193.21         630.06
         808.14         298.28
         601.29         398.03
         399.53         423.22
         713.70         151.30
         376.83         293.97
         319.97         397.20
         144.59         555.29
         299.99         412.54
         190.54         506.58
          43.36         601.79
           2.84         611.03
         557.44         365.12
         165.38         713.22
         287.57         530.18
         735.86         197.74
         869.52         264.21
         539.79         484.89
         130.77         401.07
         421.50         618.25
         321.35         754.01
         982.23         333.67
         226.88         218.79
         655.62         630.50
         726.68         574.99
         571.62         382.66
         127.67         665.32
         194.80         541.56
         790.64         351.88
         253.51         275.41
          22.57         347.00
         117.90         371.38
        1003.88         442.05
          98.22         490.98
         204.59         319.79
        1102.67         563.92
        1017.21         909.87
         399.67         592.37
         597.24         441.32
         589.11         422.28
         223.86         521.39
          14.00         948.92
         126.34         212.24
         492.33         668.50
         464.54         339.29
         101.51         376.30
         446.02         291.29
         299.78         734.22
         416.53         505.86
         592.66         376.43
         589.95         204.47
         430.29         781.87
           1.01          95.91
         215.53         575.74
          74.92         635.84
         321.34         300.90
         212.87         292.16
         104.46         549.03
         251.03         673.40
         255.01         365.53
          47.64         556.07
         569.86         697.40
         777.29         422.56
         445.17         307.98
         163.89         582.39
         540.44         341.06
         209.98         731.56
         544.54         740.74
        1547.30         125.10
         103.22         299.01
         385.84         261.74
         301.39         512.27
         124.55         673.86
          76.03         469.75
         383.76         524.17
          24.10         217.92
         543.81         292.53
        1259.98         480.52
          78.34         353.83
         212.38         155.81
         422.55         662.10
          46.36         426.81
        1099.36         177.96
         535.52         195.88
         198.89         849.79
         199.68         412.10
          87.40         746.02
         630.02         679.69
         282.53         277.79
         161.43         364.61
          60.03         839.53
         359.60         472.46
          95.73         372.11
         770.78         284.81
           6.39         319.51
         739.65         925.54
         366.13         550.45
         187.22        1067.13
         320.36         535.86
         288.51         496.48
         107.75         446.23
         982.58         459.05
         306.43         975.91
         150.57         364.59
         328.02         342.30
         336.62         541.46
          57.43         467.94
        1188.13         386.71
         300.55         553.74
          28.91         577.85
        1044.88         246.92
         432.08         754.01
         961.88         644.82
         295.82         394.67
          75.45         432.90
        1475.80         607.16
        1385.65         549.98
          59.33         512.52
          68.29         160.41
         440.47         422.80
         522.31         340.30
         683.73         497.26
         259.76         528.79
         241.80         302.87
         471.60         343.11
        1411.95         390.34
         286.65         336.87
         262.39         818.35
          12.06         319.98
         484.29         628.75
        1015.10         498.23
         353.66         342.92
           8.48         382.94
          95.24         513.85
         105.03         214.41
          87.76         324.53
          57.75         703.03
         165.40         351.12
         195.59         323.38
         269.95         828.92
         172.42         350.04
         398.30         581.26
         501.56         535.21
         893.98         869.03
         123.01         593.50
         137.68         375.38
          49.47         684.88
         250.60         250.93
         235.58         417.83
         112.05         487.45
         958.92         540.73
         439.57         688.82
         439.22         240.72
         446.04         322.79
         150.11         631.44
         448.75         178.97
         288.57         469.15
          11.18         428.45
         217.71         288.89
         248.90         490.11
         300.13         520.88
         633.12         572.71
         384.71         343.17
          38.84         401.73
         170.33         485.12
         498.38         799.42
          43.18         343.06
         143.67         230.12
          98.94         465.52
         264.12         746.08
          60.37         760.26
         850.36         895.21
         310.54         392.74
         112.08         296.99
         581.32         417.54
        1097.04         469.53
         138.98         685.88
         362.58         368.90
          34.96         620.43
         251.39         367.45
         259.86         453.80
         498.98         248.83
         425.52         584.84
          62.46         647.90
         945.81         180.69
         276.65         279.96
         704.43         335.28
         196.85         402.27
         698.54         355.07
         120.26         488.57
        1102.86         875.91
         275.97         288.66
         659.27         536.97
         504.51         431.86
         645.72         283.74
          69.07         768.61
          42.60         305.54
         554.71         551.23
         339.17         540.78
         154.07         502.65
         433.83         190.80
         275.83         611.95
         979.87         230.90
          75.89        1096.55
         217.07         238.12
         187.84         316.65
         170.98         199.99
         191.07         249.57
         496.35         482.44
          87.87         881.64
         147.42         484.35
        1091.60         411.82
         310.21         313.92
         549.50         467.01
         624.21         633.41
          73.82         197.79
         125.98         416.60
        1333.45         438.16
         397.58         909.34
         178.64         358.11
          43.70         207.35
         723.92         416.24
         115.45         245.73
         200.94         470.91
          90.40         507.79
         200.27         268.46
          33.25         384.57
          96.07         249.74
         150.24         541.04
         497.57         243.34
         345.50         124.17
         203.80         564.12
        1022.91         289.17
         296.32         475.67
        1242.30         521.20
         509.65         350.92
          22.12         668.74
          43.86         530.84
         386.11         602.41
         406.83         341.72
         690.89         150.67
          67.35         790.26
         103.20         698.62
         314.28         501.83
         230.58         346.25
         162.45         358.22
         184.66         610.11
         652.68         690.96
         157.73         614.78
         134.94         441.35
        1239.27         292.94
         494.06         246.17
         512.20         452.44
         272.12         867.93
         271.98         306.43
         458.89         684.20
         135.59         670.56
        1634.93         357.78
         770.78         401.60
         509.70         911.65
         232.93         883.17
         167.01         360.19
         490.90         601.99
         682.61         341.18
         652.20         339.61
          78.88         284.35
          53.07         473.39
         194.49         530.05
         600.59         454.96
         170.09         531.39
         787.73         453.17
          86.85         343.47
         412.33         656.70
        1515.57         321.68
         368.32         348.51
          65.66         367.40
         463.23         371.16
         730.39         291.44
         205.12         681.83
          22.63         290.97
          75.79         291.56
          32.47         409.25
         409.59         361.27
         214.31         429.22
         672.65         185.89
         239.27         453.95
         161.65         826.60
          93.14         506.67
         249.54         933.51
          45.61         181.62
         361.11         278.09
         495.70         963.66
         236.14         661.52
         560.93         504.66
         400.01         513.15
         551.85         275.75
         349.51         374.82
         279.73         603.00
        1588.58         427.18
           7.38         316.63
         450.15         272.89
         332.38         408.63
        1564.97         587.22
         151.37         541.56
         303.53         528.47
         160.14        1250.49
          78.26         373.18
         303.63         596.39
         195.25         273.30
         590.27         178.01
         166.36         461.96
         455.81         369.22
         904.74         659.49
          48.70         341.39
         188.66         371.25
         144.57         492.98
          30.30         438.32
         579.05         455.92
         316.37         618.38
         300.08         323.95
         616.66         624.36
         288.89         960.01
         790.12         548.85
         198.33         347.68
        1027.10         353.53
          54.37         199.45
         462.65         654.62
         790.30         975.98
        1455.03         764.84
         820.78         174.31
         215.81         623.32
          80.90         150.16
         229.12         561.60
         166.74         358.82
         803.45         597.52
         441.61         443.79
         337.59         652.68
          39.18         433.85
         450.26         510.20
          33.93         454.59
         710.47         382.80
         226.31         438.39
         239.62         560.36
         106.12         510.06
         385.50         507.69
         150.16         494.30
         289.14         788.80
         352.67         183.68
         295.94         413.11
         326.42         569.12
         157.78         768.57
          50.87         378.26
         135.75         234.97
         371.89         256.18
         601.69         630.98
         151.14         315.02
         262.25         432.39
         271.26         759.32
         113.54         418.24
         362.11         651.74
         482.55         684.75
          62.18         604.44
         353.69         372.31
         304.99         330.49
         884.60         648.94
         810.78         571.86
         162.95         479.60
         277.39         588.00
         179.26         429.40
         125.47         450.59
         149.35         340.88
         460.14         319.40
         320.59         600.67
         550.31         158.37
         625.70         605.60
         170.31         629.53
         539.91         217.54
          50.02         164.17
         360.37         356.08
          99.03         394.19
         184.19          54.84
         280.63         804.37
          61.95         528.72
         451.35         445.10
         278.73         403.92
        1105.72         745.83
         214.58         750.54
         202.53         903.66
         288.86         282.29
          38.75         170.67
         484.60         446.56
         283.37         477.84
         222.26         414.25
         655.84         447.10
         381.02         547.62
         929.81         572.22
         323.10         392.15
        1436.43         641.84
         135.20         358.86
         588.92         339.74
         168.73         684.34
         252.92         418.72
         476.08         503.43
          82.64         230.77
         178.67         385.42
         178.67         336.53
          81.19         690.46
          33.52         613.08
         180.69         554.28
         796.24         199.34
         537.93         399.15
          55.45         859.71
        1195.45         405.59
          28.51         611.07
          61.07         237.12
         339.08         377.17
         109.98         770.38
          97.98         784.45
          73.63         387.06
         435.27         815.81
         216.69         503.49
         349.92         532.55
         597.72        1231.64
          97.98         238.97
         365.12         336.89
         445.53         122.96
        2112.98         356.42
         416.32         298.59
         188.08         141.56
         200.87         706.14
         128.45         668.90
         399.84         898.54
          45.46         781.25
         325.06         615.05
        1404.30         386.84
         443.70         443.82
         305.86         142.96
         448.35         431.03
          53.30         370.06
         282.88         323.14
         751.17         408.61
          87.62         456.47
         105.33         539.93
         455.99         611.19
         941.50         484.05
         646.26         238.96
         430.15         846.79
         124.08         512.12
         374.54         570.52
         177.92         620.35
         155.49         634.31
         211.75         378.72
         178.07         226.21
        1241.81         119.09
          57.98         660.86
          68.46         585.05
         938.94         406.27
         359.25         488.23
         552.38         605.57
         398.05         638.15
         448.70         942.60
          69.94         275.74
         197.16         573.14
          47.29         524.06
         124.72         328.21
         297.60         356.14
         356.91         509.18
         187.41         549.85
         525.22         364.98
         121.05        1080.87
         472.95         533.59
          57.61         972.48
         883.08         200.53
         782.59         634.34
         316.91         537.78
         193.08         890.76
          45.42         245.19
         491.03         267.42
         124.33         534.88
         203.92         149.06
         142.67         415.31
         466.28         824.01
          40.76         486.55
         374.86         553.10
         732.70         262.86
         777.18         186.44
         234.67         121.75
         597.21         214.98
          93.23         626.12
         194.21         180.93
         397.55         275.05
          90.93         425.34
         997.16         320.23
         230.93         364.39
         110.81         395.51
         306.95         487.44
         393.80         374.19
         426.93         665.78
          57.96         492.11
         424.33         286.53
         314.20         636.86
         266.01         319.28
         226.84         142.62
          96.31         748.77
          59.97         291.51
         343.09         702.29
         143.11        1129.30
         288.00         703.75
         177.98         287.50
         287.88         545.07
         207.08         229.81
         306.04         413.65
         242.63         399.00
         133.81         510.83
         377.87         761.80
         241.82          45.74
         149.37         173.02
         605.31         865.13
          81.97         630.78
         270.85         239.87
          99.11         339.98
         568.54         225.32
         241.75         219.99
         304.36         898.99
         542.34         696.29
         459.53         749.54
           4.79         208.13
        1854.19         732.05
         567.18         738.55
         800.34         416.80
         466.14         205.18
         350.12         216.80
        1166.46         388.53
         315.64         480.89
         430.23         260.21
         238.10         415.22
         839.36         260.65
          29.53         430.53
         196.54        1001.79
          61.11         648.18
          41.25         242.68
         309.93         671.11
          23.38         235.20
         351.69         441.34
          80.72         774.77
         597.18         326.96
         724.66         465.16
         783.07         555.55
         199.02        1162.46
         262.47         422.95
        1335.53         616.85
         172.30         341.74
         326.26         223.03
         924.91         894.89
          33.11         653.53
         955.63         601.04
         224.98          87.24
         480.67         591.44
         145.35         424.63
         308.87         320.86
          49.91         266.56
         580.62         828.66
         813.70         746.01
         185.10         265.14
         569.84         513.22
         677.97         754.66
         298.47         552.07
         543.17         501.73
         170.31         377.10
         310.37         570.77
         564.02         169.27
         199.85         374.92
         244.97         350.83
         503.72         635.83
         466.12         373.37
          37.07         669.67
         570.83         854.68
         145.04         670.46
           9.09         452.73
         260.72         143.97
         834.04         326.99
         889.52         119.13
          63.78         305.52
         369.53         522.92
         638.13         774.37
         757.11         345.78
          94.86         208.22
         128.19         821.32
         256.67         704.44
         752.41         349.16
         920.89         539.63
         575.90         446.04
         393.42          74.92
         407.27         394.87
         951.32        1042.75
         313.29         454.87
         153.98         436.54
         219.91         681.38
         193.43         513.26
         187.58         425.52
         386.60         486.17
          20.89         896.96
         618.52         224.09
         520.17         334.15
         364.20         528.01
        1467.36         187.62
          39.61         355.21
         113.92         552.79
         327.48         604.77
         230.63         413.27
         258.04         395.35
         271.58         365.81
         522.49         344.30
         298.51         553.30
         267.43         489.94
         260.54         486.91
         923.76         189.35
         499.14         435.68
         544.65         211.62
         795.27         388.26
         194.10         430.61
         301.28         348.49
         162.41         318.52
         335.39         165.04
         401.59         503.30
          76.94         312.13
         698.13         167.33
         350.66         742.64
         888.69         703.94
         395.05        1009.91
         252.31         415.24
         240.02         338.19
         101.39         699.04
         117.07         444.13
         720.94         330.80
         693.34         337.56
         319.80         592.61
          58.92         593.20
         910.62         222.26
          60.64         770.17
         420.91         325.79
         275.54         183.05
          78.55        1115.06
         102.29         427.99
         184.88         270.39
         569.95         649.36
         582.83         186.91
          45.41         480.21
         238.95         609.68
          31.28         612.53
         610.62         671.94
         365.21         527.44
         268.68         222.04
          21.11         325.08
         179.74         301.53
         372.88         621.03
         143.51         499.97
         280.48         232.56
          62.70         282.99
         230.86         283.40
        1117.93         704.11
         621.82         240.42
         641.48         472.27
         347.97        1048.07
         142.52         553.81
         416.43         340.20
         298.20         708.29
        1283.70         150.93
         274.47         385.22
         854.55         290.99
         308.00         928.24
         304.36         660.13
          28.67         523.69
         296.65         790.57
         407.62         665.80
         346.81         620.55
         172.11         435.27
         270.73         711.34
         531.69         474.89
         117.37         371.18
         134.25         224.76
        1049.83         276.01
          86.65         615.12
         458.14         257.33
         684.99         537.48
         208.87         626.52
         145.66         392.78
         713.36         794.77
         321.25         361.25
         165.75         260.66
          31.16         280.84
         477.13         631.99
         370.59         420.66
         467.83         333.55
         466.43         978.84
         345.16         684.63
         737.53         337.31
          23.42         666.54
         169.80         591.59
         457.40         389.77
         432.73         533.58
         180.35         505.74
         114.04         429.39
          68.87         431.23
        1503.47         139.64
         329.42         651.23
         792.39         882.54
          91.03         486.50
         409.94         358.96
         332.02         259.43
         235.79         316.20
         448.96         174.10
         210.83         120.31
         452.18         578.83
         420.31         395.40
          64.76         417.78
         926.10         523.30
         569.32         489.26
         996.52         344.48
        1059.03         591.51
         374.80         717.22
         488.03         649.33
         343.59         235.98
         411.96         159.80
         545.22         482.98
         854.60         164.94
         724.37         244.95
         630.60         826.86
          93.60         509.68
         653.22         353.95
         223.84         372.79
         799.97         652.56
         157.44         556.87
          84.67         347.43
         257.80         292.07
          19.94         638.05
         258.65         446.75
         448.48         610.20
         502.41         724.77
        1009.01         291.41
          94.90         596.95
         206.48         871.82
         107.05         745.00
           1.80         266.27
         390.72         509.62
         595.43         327.32
         932.32         557.08
         191.36         476.78
         168.72         835.93
         424.39         179.72
          31.33         161.24
         446.99          67.41
          45.37         480.93
         239.66         260.01
         371.97         442.70
         327.16         340.42
         119.19         136.55
         160.28         502.45
         351.79         272.36
         216.44         479.38
         776.78         263.68
         274.05         816.52
        1310.62         781.54
         295.93         507.06
         310.39         630.63
         215.77         343.16
          84.67         264.95
         524.00         636.78
         412.25         479.70
          45.88         312.54
         334.60         492.56
         369.13         285.78
         105.40         545.55
         434.41         999.37
         611.54         498.36
         402.34         136.18
          50.92        1142.43
         192.26         580.70
         202.90         688.51
          41.71         689.25
         106.63         545.72
        1439.23         610.50
         129.69         866.67
           6.64         412.53
         409.59         680.97
         143.63         362.70
         127.45         242.11
           9.15        1067.89
          78.98         574.28
          72.91         614.24
         266.64         735.85
         870.93         516.99
         148.49         424.80
         293.03         406.17
         881.63         382.20
         191.93         282.75
          91.49         199.24
         382.61         387.82
         225.52         296.70
        1042.02         630.09
         667.75         202.32
         156.82         640.20
         234.38         681.90
         370.79         510.34
          10.07         570.53
         192.54         237.58
         443.65         159.40
         430.91         895.82
         866.92         389.37
         377.32         548.10
         537.09         945.14
           5.19         795.63
          97.35         658.07
        1027.34         912.13
        1110.18         401.20
         577.64         252.10
         683.43         426.95
         403.31         484.40
         265.85         330.67
         658.30         275.09
         119.92         143.74
         631.84         428.41
         532.03         318.52
         957.27        1014.41
         738.55         632.79
         942.35         270.96
         481.10         661.14
         540.60         359.95
         253.64        1184.77
         289.04         176.40
         154.18         361.56
         500.07         833.31
         128.86         327.48
         266.02         456.51
         148.43         584.89
          44.03         658.74
         391.01         596.57
         359.85         485.91
         211.08         773.56
         160.12         510.77
         395.13         329.60
        1137.90         499.02
          20.97         967.71
         414.32         410.32
         199.35         416.88
         153.62         147.95
         352.37         238.76
         413.74         709.33
         358.93         564.75
        1052.50         773.97
         307.93         378.11
         273.44         455.23
         327.28         382.87
         246.84         292.93
         509.41         460.18
          61.87         522.45
         263.28         541.10
         120.69         342.13
         116.43         347.69
         121.49         394.51
         148.64         529.10
          38.74         409.58
         284.63         507.04
          25.13         345.08
         132.80         258.00
          80.46         267.24
         230.77         497.48
         270.38         818.81
          39.43        1040.63
          43.51         292.47
         250.41         209.90
         108.99         571.96
         199.64         368.18
         367.93         325.73
        1049.50         262.12
         259.68         367.51
         255.02         360.54
         685.83         442.71
         720.65         540.97
        1000.53         487.78
         645.91         436.78
          61.33         404.61
         225.58         480.82
          91.73         624.70
         334.25         561.59
         234.31         478.75
         174.15         509.56
         205.43         412.14
          81.03         519.51
         238.59         106.35
         592.06         735.41
         573.77         368.57
         126.49         453.23
         139.61         343.47
         240.52         795.43
         267.05         283.49
         632.17         833.71
         446.61         895.24
         223.11         400.88
         221.18         570.85
         246.43         102.53
          92.34         357.98
          50.04         218.55
         340.55         451.95
          83.76        1043.10
         394.97         347.76
         815.86         231.86
          88.74         156.88
         190.84         382.31
         218.58         267.81
          68.54         263.06
         296.85         405.39
         180.73         564.07
         348.93         208.55
         164.61         473.17
         414.14         449.96
         297.21         531.92
         248.50         713.79
        1010.88         118.33
         497.40         389.75
         820.06         519.93
         672.15         764.07
          88.27         699.49
         583.38         461.24
         806.01         453.38
         376.43         634.60
         239.64         416.36
         195.54         212.85
         362.19         245.83
         697.39        1090.80
        1047.03         420.61
         301.49         531.04
         249.90         333.61
         336.60         567.01
         119.63         671.11
         345.56         515.21
         188.44         710.64
         485.94         804.76
         232.68         776.95
         112.13         523.31
          73.11         409.82
          34.76         397.32
         190.25         140.47
         121.80         246.29
         180.52         474.94
         142.52         251.33
         320.42         128.49
          26.85         301.70
         896.68         483.00
         157.81         622.06
        1263.48         185.88
         735.12         752.30
         164.59         718.57
         102.27         531.05
         189.92         523.81
          19.19         398.81
         265.83         503.28
          68.70         788.79
          91.11         263.78
         138.34         440.80
          94.26         504.27
         109.53         353.93
         256.36         947.53
         187.05         443.58
         386.91         514.83
         422.57         223.74
         152.11        1073.25
        1006.54         534.97
         120.46         451.55
         454.11         386.08
         149.52         289.54
         172.64         807.41
         218.26         756.61
         285.13         398.96
         782.75         651.07
        1301.57         425.50
         106.13         667.71
         222.27         731.80
         831.26         278.99
         128.98        1126.91
         728.60         551.05
         237.25         430.20
         178.65         346.65
         738.26         488.89
         840.61         351.04
          56.61         773.08
         157.07         451.61
         422.65         405.00
        1264.62         621.94
         556.08         165.72
         223.76         217.82
          84.43         609.44
          27.93         589.20
          86.77         369.93
         427.50         104.09
         195.25         804.72
         215.70         623.34
          55.52         264.57
         476.26         423.22
         829.69         617.48
         436.98         584.35
         266.21         462.89
         150.13         438.66
         328.46         795.71
          36.97         638.17
         232.38         374.84
         122.16         204.33
         663.53         494.20
         369.81         232.12
         718.92         478.10
         398.00         535.45
         455.08         867.16
          70.20         945.58
        1435.18         509.22
         793.54         443.80
         478.11         267.66
           9.21         459.00
         413.59         465.44
         401.83         309.21
         489.24         272.00
         227.49         639.44
         377.81         273.07
          35.54         506.36
         988.35         224.89
         176.58         715.46
         153.30         132.96
         671.79         786.66
         238.86         734.67
         398.64         346.64
         556.51         308.67
          34.11         690.41
         974.49         494.75
         494.53         577.48
          64.61         457.77
         511.78         298.85
         493.95         486.81
         102.64         244.53
         233.65         878.37
         658.37         440.90
         218.88         475.03
         100.03         426.66
         169.35         546.26
         143.06         364.41
         202.49        1059.27
         288.15         410.10
          94.90         547.98
         400.72          46.69
          29.32         855.55
         513.20         434.79
         140.36         527.18
         103.28         361.49
         461.32         351.57
         441.13         455.78
         206.66         196.44
         731.34         755.69
         310.44         631.95
          60.59        1061.30
          76.45         403.42
        1019.05         669.00
         544.38         636.14
         205.84         190.73
         382.16         419.51
         148.64         784.87
         169.90         204.93
         484.31         465.17
         348.01         470.23
         480.02         291.89
         334.32         302.83
         302.41         394.06
         458.36         652.23
         783.24         332.62
         961.56         559.88
         551.14         323.10
         624.89         472.07
         341.95         371.11
         569.24         500.16
         310.09         287.25
         269.84         208.88
         409.66         333.38
         750.21         425.17
         513.07         225.48
         130.40         581.24
        1289.53         962.62
         125.52         581.46
         291.03         193.76
          34.35         678.73
         371.51         428.35
          47.80         557.96
         121.97         718.77
          30.51         627.82
         199.92         793.10
         245.11         520.09
          50.77         584.84
         505.93         600.84
          75.94         412.17
          24.93         597.10
         742.44         304.25
        1002.32         469.86
         118.70         390.76
         462.45         473.11
         243.30         452.12
         316.22         216.44
         259.69         937.08
         507.06         542.51
         616.89         814.06
          52.12         482.66
         394.81         250.02
          60.61         369.24
         420.47         480.42
          83.29         146.09
         276.25         332.27
         500.76         624.01
         932.86         272.53
         195.43         759.10
         839.14         256.70
         140.44         481.36
         349.51         465.05
         687.31         257.91
         596.37         512.25
         478.01         673.20
        1239.04         390.08
         613.12         734.43
         345.75         451.50
         469.82         284.47
         369.26         478.21
         211.53         365.94
         155.12         471.29
         123.59         642.75
         353.73         388.53
          69.34         301.98
         184.76         478.97
         526.04         650.97
          96.11         879.08
         574.38         390.19
         140.94         645.34
         264.24         632.76
         170.82         762.16
         233.06         640.23
         149.45         196.54
           9.98         502.66
         233.96         592.50
         512.02         213.85
         472.53         446.25
         102.13         603.91
         293.27         554.54
         247.37         382.52
         508.48         465.48
          48.81         183.81
         154.49         469.16
         647.64         305.01
         809.45         551.22
         273.54         296.70
         505.29         797.87
         232.70         428.60
        1422.86         639.55
         124.92         454.98
         344.70         387.34
         167.16         687.52
          28.08         564.84
         143.56         362.73
         532.78         549.08
         257.01          85.15
         463.10         676.13
         586.32         507.59
         309.40         338.91
          86.16         755.87
         126.18         120.87
         143.55         164.55
         604.80         170.47
         688.36         563.31
         148.12         490.85
         352.58         199.90
         248.03         278.96
         334.09         605.69
         759.91         475.74
         566.77         519.13
          77.16         441.99
          59.14         250.61
          56.83         600.60
         183.72         568.70
         439.17         829.79
         138.56         453.02
          82.13         309.50
         510.26         717.74
          43.38         263.40
         300.41         582.29
          51.49         257.50
         449.18         349.81
         404.49         449.87
         161.21         671.08
         872.13         513.04
         183.09         674.04
         964.21         401.47
         116.41         929.96
         114.89         343.54
         298.33         405.04
        1015.90         683.23
         437.46         821.45
         497.81         747.05
         591.60         733.47
         683.55         697.10
         418.62         127.68
         909.48         320.82
         890.78         347.97
         332.48         715.38
         514.49         257.05
         145.96         350.39
         110.79         293.74
         247.29         499.55
        2501.50         279.75
         298.09          97.12
         584.13         416.74
         158.53         165.97
         533.80         409.50
         613.15         590.25
         595.25         101.72
        1190.23         120.83
         270.22         466.60
         399.87         428.56
         395.83         723.11
         145.43         411.20
         109.40         357.67
         108.47         708.17
         190.02         246.41
         876.68         603.87
         545.86         374.40
          82.60         331.71
         276.11         286.23
         433.64         234.34
         900.78         278.57
         331.10        1035.29
         910.24         751.50
         452.38         441.14
         524.41         294.83
         286.07         628.21
         995.17         470.63
          76.26         259.04
         314.94         567.90
         996.57         666.55
         301.32        1050.63
         108.50         753.06
         463.91         288.08
         397.23         507.54
         295.05         695.72
         118.45         316.76
        1257.70         493.20
         146.89         435.19
         210.94         344.14
          43.49         526.95
         270.68         564.06
         505.44         638.38
         137.58         565.70
          31.59         432.12
         898.23         337.58
         571.88         842.28
         455.21         817.00
         382.69         263.17
         177.35         184.22
          80.08         690.13
         497.36         875.32
         142.90         651.91
         282.77         869.45
         461.31         557.03
          79.07         168.63
          69.46         422.49
         954.45         534.14
         528.33         184.50
         192.22         358.14
         269.69         523.11
         395.42        1011.83
         254.55         803.68
         495.88         710.13
         142.10         800.45
         126.49         447.73
          38.04         265.53
        1008.65         924.25
         664.30         571.84
         826.65         848.26
         200.11         444.25
          91.60         369.78
         161.22         512.90
          96.07         374.94
         161.97         519.04
         115.54         285.36
         152.86         554.50
         201.85         459.84
         189.23         293.83
         264.94         662.61
         115.09         421.02
          20.61         700.14
          20.87         447.50
          82.82         877.96
         285.81         175.19
         495.26         463.77
         726.04         289.59
         308.49         166.77
         575.83         621.35
         441.99         713.77
         537.49         612.15
         165.67         352.63
         438.71         405.72
         141.15         320.92
         440.55         279.83
         263.55         452.54
         877.38         523.21
         164.16         557.64
         155.72         386.47
         452.16         291.29
         435.25         295.11
         350.30         447.76
         125.72         165.57
         600.37         454.58
         111.76         457.73
          36.95         191.78
         405.25         663.65
        1611.54         283.65
         237.92         704.23
         806.84         567.86
         195.73         313.22
        1091.80         552.43
         763.20         590.58
          46.69         244.69
         207.44         180.07
         285.59         221.48
          83.27         361.37
         139.58         411.39
         646.69         478.57
         100.59         569.04
          28.60         746.68
        1085.36         831.92
         259.40         323.37
          79.97         655.51
         131.04         510.04
          46.42         949.08
         341.70         504.67
         250.89         550.62
         365.57         462.90
        1265.94         745.56
         468.82         601.95
         261.13         325.22
          81.53         450.98
          98.37         428.95
         534.79         359.10
         946.08         278.37
         341.48         598.82
         210.87         194.36
         354.20         512.35
         293.40         461.09
          37.92         892.00
         240.30         231.19
         434.67         228.32
         290.68         547.00
         412.68         180.58
         385.70         399.54
         184.98         464.06
         280.63         559.58
         256.05         579.96
         443.66         314.03
         261.13         458.53
          39.22         305.75
         361.77         364.93
         898.23         240.80
         339.09         674.85
         187.18         400.33
         269.03         497.37
         498.69         530.91
         192.15         471.76
         396.96         291.49
         279.45         462.53
         199.97         837.20
         618.05         118.99
         267.38         531.34
         840.09         463.96
         191.25         246.42
         543.33         462.07
         553.40         321.55
         194.16         471.16
         127.52         628.27
         423.53         433.58
         347.58         633.50
         145.21         656.90
         291.09         558.95
         257.27         336.53
         320.27         679.76
        1141.26         291.38
         368.67         649.89
          35.33         316.02
        1244.01         587.86
         395.82         630.07
         136.87         385.40
         468.27         310.76
         211.34         558.22
         463.69         874.32
         302.39         555.25
         223.78         235.94
         231.95        1206.60
         317.52         580.86
         417.68         520.83
         506.70         290.17
         452.88         261.89
         436.46         286.48
         398.27         863.71
          87.97         350.69
         954.19         236.41
         438.68         214.64
         751.74         301.49
         124.28         514.59
         183.47         486.71
         345.34         680.05
        1237.90         449.86
         535.40         355.14
         138.77         770.25
         128.70        1111.54
         264.02         312.06
         687.38         671.16
         541.02         481.56
         168.61         651.13
          59.06         262.63
         247.71         461.76
         186.23        1073.39
        1361.00         316.58
         223.74         563.03
         627.91         559.74
         692.74         247.57
         276.28         344.65
          40.32         626.66
         617.89         204.19
         160.96         867.76
         544.62         341.51
         159.55         582.61
         331.93         145.02
        1043.66         500.67
         869.31         605.73
          64.44         354.63
         517.93         569.61
        1654.98         860.46
         666.59         391.28
         152.42         527.84
         920.62        1009.58
         426.53         285.01
         668.50         641.20
          32.44         937.91
         173.80         482.62
         124.95         663.38
         390.49         462.30
         987.06         328.64
         141.13         695.40
         298.49         424.05
         835.71         236.57
         596.02         719.75
         428.11         385.26
         210.97         727.69
          42.76         208.24
         166.31         528.61
         307.92         465.49
         258.69         566.00
         440.34         922.56
         254.21         531.02
         108.58         621.47
          33.13         680.22
         776.22         724.15
         315.04         475.62
        1015.44         524.93
         737.77         744.19
         492.70         215.54
         659.10         628.38
         183.72         533.29
         110.90         296.38
         242.53         600.39
         182.93         696.85
         593.47         437.67
        1336.50         559.71
         326.67         328.21
         756.92         555.98
          91.06         446.32
        1314.31         185.89
         530.48         400.58
        1128.21         338.01
         588.20         102.74
          26.95         263.44
         146.98         971.62
         147.70         346.40
         109.90         425.84
         664.99         557.14
        1138.26         572.17
         577.47         136.15
          79.60         282.67
         304.23         289.66
         206.62         792.70
         213.56         526.28
         987.71         521.73
         325.92         221.51
         527.82         573.68
         430.21         622.79
          72.02         520.61
         353.07         761.93
         333.17         296.37
         342.88        1287.80
          90.08         637.96
        1918.21         564.24
         486.11         482.40
         361.00         392.80
         289.90         601.20
          71.09         633.99
         158.93         479.07
         386.16         239.23
         279.08         335.34
         470.00         611.60
         770.35         219.97
         545.69         306.23
         187.96         973.72
          25.90         649.46
         210.74         427.46
         538.53         559.95
         856.99         468.60
         817.72         211.38
         372.50         634.90
         179.80         567.99
         161.27         209.72
          80.16         222.57
         321.95         525.91
        1393.53         478.10
         857.56         336.86
         597.74         379.66
         271.49         467.56
         235.31         515.99
         517.85         732.26
         897.36         257.43
          96.30         567.15
         545.94         491.19
          17.78         864.34
         441.79         408.29
         180.39         202.87
         981.78         598.16
         331.30         165.39
         339.51         754.97
         208.74          90.65
         225.10         679.12
          72.15         473.30
         218.19         610.45
        1001.24         428.55
         507.61         825.04
         419.47         448.32
        1310.42         355.39
         446.14         322.29
         169.16         310.95
         248.97         362.12
         625.02         700.39
         258.87         330.80
         556.71         452.65
         136.77         515.53
         117.90         352.64
        1590.86         446.19
         276.79         453.13
         268.15         522.45
         602.38         679.28
          42.32         798.05
         204.29         600.56
         228.13         344.69
         166.27         259.45
         414.20         507.48
         571.98         914.92
          77.00         239.09
         123.62         381.68
         470.78         411.14
         161.56         265.54
         607.04         111.42
          50.38        1004.22
         198.01         577.96
         427.41         545.44
         382.21         288.92
         437.73         556.35
         366.42         692.19
         475.33         699.51
         633.36         403.14
         426.20         346.85
         418.31         238.66
         180.96         429.27
        1151.30         281.65
         884.66         535.29
         302.56         470.31
          62.98         229.28
         165.56         541.80
         188.19         543.49
         372.48         394.08
         632.13         507.17
         332.93         803.60
         720.07         482.47
         373.16         108.89
          70.19         519.88
        1235.04         228.46
         459.09         439.67
         629.87         547.40
         313.77         618.68
         288.79         671.74
         659.80         681.34
         574.93         393.56
         401.24         658.86
         281.97         560.21
         295.46         685.20
          92.59         208.70
         704.19         392.84
         497.73         718.12
         237.39         886.46
         694.92         201.54
         474.97         544.19
          77.23         941.99
         200.02         166.49
         174.16         505.96
         627.58         376.38
         277.07         497.35
         513.89         474.06
         145.11         468.03
         350.19         263.99
         257.31         227.80
         216.67         551.89
         437.76         272.14
         175.59         241.57
         280.43         478.40
        1130.01         460.24
         220.45         455.80
         185.14         420.68
         219.28         388.35
         298.22         125.13
         422.17         428.39
          15.96         476.46
          78.66         502.37
          80.30         591.82
         200.45         805.11
         130.07         340.40
         459.79         364.90
         384.27         619.40
         548.67         169.75
         276.30         119.05
           4.49         497.44
          21.02         433.96
          13.89         765.40
         127.81         495.39
         299.11         705.16
         274.54         310.65
         492.37         190.28
         513.24         142.98
         266.39         178.25
         479.94         285.45
         768.95         440.22
         401.95         170.85
        1015.00         503.38
         760.67         434.99
         162.41         187.92
         624.49         502.89
         665.46         460.46
        1150.12        1010.41
         433.31         409.36
         306.08         285.38
         738.82         280.96
         223.08         816.14
         722.22         722.51
         605.63         853.47
         229.62         120.64
        1084.45         999.53
          54.14         467.22
         176.63         370.49
         200.39         269.34
         303.91         630.48
         548.43         709.70
         254.28         640.93
         552.88         299.61
         464.10        1360.02
         302.50         553.05
         443.97         215.14
         257.75         627.95
         421.10         426.45
         446.66         769.56
          57.93         325.57
         241.01         134.57
         430.84         321.76
         708.98         304.48
         380.50         747.04
         506.45         335.04
        2233.20         241.42
          52.54        1201.03
         316.37         559.56
         244.49         752.64
         103.50         312.34
         226.26         171.97
         223.05         802.70
          35.63         240.86
         188.28         566.53
         313.75         281.13
         910.23         831.18
         259.98         395.07
         436.52         349.74
         802.06         398.38
          41.73         789.92
         310.62         409.81
         158.06         599.61
         171.99         601.08
         536.82         666.05
         101.39         488.17
         163.07         152.71
         189.63         424.44
        1238.31         402.23
         143.69         343.94
         237.44        1026.18
         388.70         316.73
         319.52         514.52
         267.60         151.65
         556.42         584.56
         709.84         458.10
         133.79         416.54
         750.85         516.05
         556.48         586.77
          53.90         424.26
         322.74         961.76
         294.12         622.47
         328.95         512.79
        1251.82         200.85
         158.73        1122.65
         448.54         689.22
         273.23         584.70
         555.09         589.07
         516.13         489.97
         254.06         408.38
        1094.12         523.37
         341.25         232.85
         161.54         624.11
          88.88         374.48
           1.89         403.51
         293.48         357.72
         831.35         252.89
           6.26        1019.96
         258.40         224.67
         282.48         360.45
          61.34         873.33
         554.34         894.20
         280.73         200.53
         337.21         543.18
         374.15         456.83
        1209.81         608.39
         619.68         771.63
         442.04         146.92
         625.91         376.15
         567.22         556.70
          97.40         612.20
         954.34         317.96
         377.39         207.74
         444.62         465.07
         164.21         467.56
         188.01         390.25
         515.42         666.94
         835.26         489.11
         164.58         285.18
         402.08         326.87
        1116.82         183.72
         643.00         128.68
         185.06         912.62
         128.81         543.50
          52.09         389.85
         377.62         620.87
         660.71         646.11
         606.50         291.43
         179.78         717.70
          41.38         226.07
         410.54         131.60
          98.36         731.06
         769.04         440.17
          96.93         291.37
        1697.71         980.20
         790.02         679.98
         142.00         243.96
         139.93         296.97
          48.58         528.98
         578.28         497.02
          42.99         461.09
         175.74         607.28
         862.11         145.91
         168.38         399.16
         316.00         638.84
         120.35         795.81
         177.57         322.64
         529.91         402.57
         492.39         837.34
         454.71         291.29
        2118.37         508.70
          46.44         496.35
         472.03         209.55
        1797.01         272.81
         173.01         502.23
         111.23         307.93
         345.63         254.55
         221.11         358.12
         508.81         514.92
         152.18         740.80
        1111.00         297.17
         264.91         414.86
          35.03         315.77
          84.86         240.47
         360.59         233.27
         390.82         438.91
         329.47         475.26
          39.88         609.92
         342.76         577.52
         368.44         416.18
         388.68         408.89
         979.76         638.28
         432.11         578.07
         914.80         205.74
         760.35         587.23
         763.32         234.99
         615.16         196.47
         527.48         343.12
         659.37         345.95
         743.21         367.30
         312.02         402.87
         325.08         147.33
         251.38         657.57
           7.79         477.13
        1325.27         457.20
         637.71         715.91
          95.18         314.48
         274.73         429.23
        2027.77         547.00
         210.14         523.20
         500.17         879.29
         548.24         322.88
         320.51         406.70
          98.40         469.13
        1850.44         389.15
         254.68         396.67
          65.27         529.92
          77.06         419.21
         666.36         372.70
        1023.07         528.35
         478.10         388.15
         351.35         159.80
         859.56         572.07
         111.77         402.94
         307.76         458.63
         512.37         612.09
         423.86         546.62
         369.44         242.72
         191.36         417.85
        1274.57         109.16
         164.88         389.27
        1460.39         375.47
         962.97         376.11
         347.17         118.10
         472.26         455.03
         422.35         706.55
        1295.25         454.38
         108.05         464.48
         983.48         524.89
         758.06         466.29
         324.27         404.02
         275.07         495.75
         329.37         399.79
         460.80         181.58
         257.65         303.62
         165.89        1029.10
         243.17         718.09
          27.22         167.23
         389.18         175.25
         119.31         170.08
         139.55         566.75
         889.22         329.89
         277.52         211.24
         682.42         494.99
         155.73         277.43
         337.43         311.55
         164.36         933.41
          98.58         754.92
         414.24         445.51
         586.86         587.30
         157.63         499.60
         195.82         683.20
         500.50         632.77
         796.81         433.37
         225.31         248.50
         159.97         294.56
         115.37         408.25
         378.25         925.76
         145.77         543.85
         183.56         536.82
         176.64         121.06
         334.81         706.23
         190.55         964.18
         638.01         458.89
         156.14         354.79
         195.49         321.81
         152.64         244.92
         207.04         584.14
         510.60         857.42
          91.16         443.15
         110.00        1002.73
         351.55         774.15
         561.03         944.11
         203.86         656.16
         210.33         352.67
         112.53        1191.19
         263.85         525.92
          46.22         421.90
         168.53         795.86
         542.69         543.54
         196.00         344.22
         267.19         733.76
         280.49         570.06
         885.91         620.21
          11.65         353.58
         116.58         188.39
          25.72         548.62
         153.28         368.27
         367.13         625.09
         329.08         556.35
        1252.60         546.22
         187.56         322.32
         165.34        1066.79
         333.05         324.46
         720.11         973.41
         952.43         440.79
          61.68         360.59
         617.71         521.20
         146.79         361.54
         821.11         632.08
         151.07         678.26
         286.17         531.69
         312.57         423.61
         108.27         278.02
         208.50         439.51
         192.50         278.58
         394.65         158.84
         185.74         673.31
         386.76         509.30
         423.56         399.39
         379.48         620.82
         547.94         384.09
         277.98         546.04
         456.91         409.75
         565.30         342.70
          25.64         431.11
         392.40         619.52
         268.92         227.30
         178.18         949.32
         214.98         264.07
         364.22         446.91
         683.45         728.54
          64.86         225.07
         624.33         628.13
         245.51         284.63
         113.13         509.25
         206.57         651.03
         268.82         205.07
         989.26         757.15
         416.80         393.61
         473.67         273.62
         938.69         831.43
         320.28         261.52
         641.63         485.89
        1540.41         318.59
         286.84         812.11
         457.79         576.10
         748.24         829.44
          39.23         620.82
         513.40         254.60
          85.63         460.48
        1020.86         594.70
         247.85         490.26
         240.35         567.19
         102.45         141.01
          74.18         221.07
          25.24         603.92
         170.65         241.36
         528.66         615.96
         302.38         423.53
         476.93         297.25
         332.07         328.85
        1117.84         816.12
         204.89         537.48
         147.37         806.68
         285.66         656.69
         146.16         242.77
         563.26         247.63
          86.51         238.88
         266.76         633.64
         249.24         597.64
         240.59         440.40
         179.36         373.40
         221.67         577.37
         651.97         343.55
         227.98         263.13
         783.78         241.43
         323.21         500.41
         212.59         269.51
         364.41         500.70
         423.98         340.44
         285.53         478.88
         348.68         379.60
         839.21         688.54
          43.60         458.88
          42.17         259.45
         121.89         559.76
          22.09         178.65
         624.59         499.59
         230.95         772.13
         103.66         276.29
         103.63         549.29
         783.69         482.95
         335.52         658.77
          96.63         477.68
          90.30         371.57
         590.51         665.55
         137.85        1038.58
         398.95         297.63
          88.92         689.09
         335.07         462.60
         327.43         582.67
          66.26         623.23
         617.85         223.34
         275.46         431.42
         393.48         401.91
         763.66         654.65
         145.62         389.24
         147.92         216.15
         110.78         193.34
         622.10         449.14
         566.15         727.81
         237.13         555.15
         366.15         361.05
         226.22         437.02
         157.46         234.82
         357.46         384.70
         203.78         567.26
         282.16         275.80
         669.55         365.33
         622.38         747.43
         327.19         479.45
         761.36         467.21
         175.98         416.23
         532.79         457.16
          17.39         627.66
          55.79         121.26
         137.74         750.84
         302.11         544.07
          87.44         652.25
         216.10         439.48
         656.80         814.47
         243.64         135.56
         227.97         469.07
         117.62         549.51
         143.90         590.78
         201.65         957.73
        1097.47         850.32
         880.11         257.25
         163.58         435.29
        1863.56         319.44
        2029.23         534.55
         464.56         473.23
         234.57         529.32
         353.62         618.27
         274.90         190.02
         364.19         613.62
         476.71         250.42
         430.30         601.45
          31.14         643.73
         165.41         416.21
         297.71         322.07
         104.21         272.70
         292.01         659.12
          68.76         816.14
         317.45         825.82
         208.21         282.92
        1147.10         574.21
         101.87         210.49
         336.04         787.80
         107.59         335.40
        1093.47         584.58
         153.20         383.03
         261.95         221.96
        1317.17         752.17
         215.24         307.91
        1049.33         215.23
         460.51         389.80
          21.52         321.92
         191.55         465.10
         305.80         289.99
         394.82         424.98
         503.90         536.18
         216.45         395.76
         920.77         882.80
         254.76         381.27
         348.55         581.05
         430.93         314.53
         643.49         275.75
         319.02          64.56
         421.91         593.92
         662.29         352.67
         138.15         472.64
         387.89         287.30
         335.48         343.88
         175.76         537.17
         752.02         611.36
         169.31         400.04
         677.79         744.68
         496.68         337.43
         567.05         536.22
         417.15         370.59
         827.20         561.80
         158.93         681.02
         350.26         566.76
         367.46         576.65
         825.44         592.35
         596.30         340.12
         112.61         434.05
         159.15         499.61
         344.40         325.86
         363.97         686.59
          75.01         329.14
         527.06         421.68
         160.13         501.56
         167.23         431.01
         472.79         689.62
         236.31         387.64
         751.67         729.52
         299.66         935.00
         349.30         407.59
         276.85         352.86
         636.09         156.16
         738.30         884.32
         185.30         412.25
         410.16         460.41
          53.07         586.99
         157.18         617.88
          24.90         250.26
          90.41         297.11
         107.00         824.12
         402.38         807.42
         375.12         219.14
         108.26         327.40
         354.03         326.11
         353.06         556.84
        1325.06         293.61
         372.60         325.47
         998.73         469.06
         200.99         532.67
         635.93         475.54
         395.68         137.36
         234.31         317.26
         219.08         757.32
        1065.07         451.91
         280.32         243.51
           7.99         606.42
         238.04         648.77
         420.54         321.99
          58.93         454.05
         636.18         350.90
         171.99         403.47
         656.32         762.05
         287.51         510.72
          97.31         349.89
        1232.39         654.97
         117.94         458.50
         257.20         402.95
        1072.31         335.04
         346.92         343.36
         153.64         357.22
          68.70         232.68
         211.45         459.11
         696.27         447.63
         632.44         817.51
         428.51         788.34
          49.34         517.37
         458.15         669.04
          65.69         703.63
         174.24         364.80
         419.53         551.76
          20.32         303.04
         170.38         614.53
         426.59         335.15
         256.76         402.64
         731.62         242.53
         424.60         466.24
         370.76         858.25
         257.11         566.22
         220.62         385.19
         663.67         575.49
         200.49         760.66
         291.18         363.51
         952.49         610.92
         172.86         180.05
         137.55         446.91
         631.58         670.47
         592.14         263.34
         443.20         432.35
           8.04         845.90
         212.28         603.73
         469.27         165.39
         291.01         654.11
        1066.94         251.45
         329.41         693.74
        1025.29         509.92
         168.16         407.13
         262.94         327.35
         206.31         447.83
         224.78         780.39
         251.40         753.66
          54.96         443.04
         139.30         730.39
         548.50         304.02
         207.13         446.71
         151.11         531.64
         170.53         467.10
         114.46         583.91
         202.60         437.19
          64.67         622.99
         252.09         304.47
          74.77         709.88
        1801.70         344.83
         258.76         467.83
         125.85         745.38
          86.83         837.00
         220.43         411.54
         370.41         413.85
         904.51         472.71
         146.09         595.55
         373.00         633.86
         548.72         515.70
         588.49         467.10
         257.14         539.21
         178.60         893.61
         160.18         444.10
         882.22         883.99
          78.64         402.37
         168.54         178.43
         101.14         534.01
        1002.75         555.41
         282.44         666.98
        1473.24         143.78
         615.03         464.76
           2.41         675.30
         189.60         358.49
         211.47         537.67
         377.22         393.08
         177.62         545.81
         135.87         780.05
          10.56         155.52
         180.22         646.34
         341.25         425.39
          12.11         514.70
         397.34         444.31
         360.21         221.76
         228.98         871.38
          59.23         406.31
         314.70         536.31
         509.70         412.21
         689.28         279.72
         168.22         434.08
         293.32         469.57
         191.77         603.65
         292.38         213.20
         198.86         602.23
        1354.33         192.24
         685.77         339.00
         488.82         329.48
         925.28         367.00
         264.33         446.75
           5.58         464.39
         408.18         656.78
         300.19         585.17
         873.14         374.86
         495.20         192.13
          27.58         924.87
         217.66         468.11
         215.66         533.88
         865.93         697.40
         374.53         340.29
         165.71          86.66
          83.14         689.09
           5.02         543.36
        1057.24         304.53
         517.66         451.70
         394.40         104.40
         791.56         352.42
         458.19         235.74
         160.73         869.33
         185.66         171.95
          30.83          55.72
         917.32         463.43
          86.78         450.38
         265.20         371.95
         238.53         557.81
         504.08         313.46
         349.13         521.99
         155.41         318.69
          38.22         716.72
         350.90         604.56
         386.64         333.20
         134.60         354.25
         511.74         510.39
          96.69         546.75
         540.07         616.98
          59.61         339.09
         971.59         624.58
         351.94         366.18
          37.98         563.42
         919.80         428.90
         382.83         691.34
         327.59         283.26
         319.62         340.92
         434.90         666.13
         233.26         496.33
          47.84         965.22
         418.58         299.43
         448.29         639.37
        1300.68         444.99
         203.85         646.07
          10.10         341.10
         178.53         428.12
          47.54         647.42
         712.34         953.26
         580.76         286.96
         958.44         298.06
         540.31         337.99
         648.89         551.69
         327.18         486.23
         119.38         558.90
         150.76         172.32
         205.67         587.30
         114.99         587.12
         974.20         294.81
          79.09         430.33
         374.39         446.82
         310.33         350.30
         209.51         465.07
         225.75         774.79
         221.02         386.22
         360.03         190.23
         996.25         332.27
         755.96         581.00
        1413.05         450.64
         156.07         143.30
         653.59         374.34
         423.65         641.05
         126.67         676.89
         225.83         285.70
         285.34         740.68
         383.94         839.34
         131.53         283.67
         360.72         445.49
         412.36         328.29
         646.14         525.82
         158.29         609.31
         158.64         699.29
         121.90         661.89
         300.22         457.94
         169.62         539.00
         181.30         767.85
         516.81         503.90
         329.31         443.98
         956.06         843.17
         506.28         709.70
         856.82         501.79
          60.16         409.24
         307.90         419.94
         431.59         173.83
         157.90         862.57
          96.57         383.77
         194.94         465.32
        1277.76         591.01
          29.61         223.23
         300.71         388.41
          87.84         630.90
         516.90         492.41
         156.26         652.59
          70.26         373.64
         654.46         385.75
         310.43         720.61
         290.10         672.13
         539.04         633.14
          42.88         569.04
         109.88         669.93
         367.43         306.26
         168.35         907.37
         263.30         492.44
          52.60         298.17
         181.87         535.70
         302.47         543.20
         318.49         119.41
         424.74         408.76
         107.89         760.17
         244.25         763.18
         591.73         493.58
         104.89         947.67
         577.85         449.05
         414.50         553.86
         232.86         238.15
         151.23         318.47
         112.83         486.16
         139.42         699.87
         698.93         678.84
          86.27         510.40
         229.25         502.66
         332.90        1277.46
        1675.55         683.89
         250.03         748.42
         669.09         727.09
         365.49         576.10
         956.99         191.03
         355.67         801.99
         230.02         151.32
         979.72         246.39
         199.12         426.26
         521.48         532.41
         541.69         676.71
         508.91         389.11
         304.53         359.44
         438.27         367.26
         189.16         725.81
         232.75         468.17
         198.98         643.66
          78.66         347.45
          66.15         911.23
         866.90         620.86
        1397.41         638.43
          43.14         248.88
         618.69         478.41
         694.04         618.04
         248.37         322.57
         629.19         315.77
         458.97         328.25
         217.43         460.00
         107.09         676.74
         754.26         138.18
         159.74         941.33
          90.19         463.89
         102.74         710.45
         148.82         400.13
         393.83         304.83
         497.32         428.70
         674.41         372.65
          15.31         389.64
         238.47         587.22
          48.38         502.90
         894.31         672.23
         315.12         231.37
         992.36         329.59
         455.80         248.73
         441.10         572.97
         728.20         692.33
          17.43         520.24
         502.69         367.95
         195.08         233.20
         855.77         271.94
         592.63         333.07
         159.44         399.11
         110.50         555.48
          37.56         350.88
         596.54         616.86
         291.67         330.56
         169.75         330.51
         302.46         238.99
         353.86         306.60
         170.29         234.98
          10.72         356.02
          91.77         662.83
         134.47         463.22
        1502.46         561.27
         112.15         369.17
         907.16         498.36
        1169.82         549.26
          32.06         362.32
         259.93         881.65
         553.29         676.91
         149.04         450.48
         216.32         412.23
        1295.00         521.93
         206.57         712.07
         537.21         548.98
          24.34         847.99
         602.64         327.99
         523.29         479.41
         379.33         260.08
          53.85         836.97
          78.99         359.77
         241.25         248.58
         237.58         368.01
        1259.70         219.10
         235.13         356.85
         127.58         306.29
         480.42         349.09
         191.95         275.50
          69.06         685.56
         892.42         477.10
         100.61         709.55
         174.99         663.27
        1079.83         535.79
         170.95         530.91
         364.89         363.05
          33.97         648.36
         350.06         595.96
         510.11         377.99
         173.58         485.33
          88.05         485.86
           9.33         285.50
         296.41         341.63
         725.65         341.56
         304.15         571.12
         273.35         311.56
         513.15         459.59
         357.60         384.95
         488.52         422.23
         130.05         426.93
         217.75         416.44
          99.99         287.89
         910.65         123.49
         134.77         566.21
          54.45         414.92
         443.61         563.37
         135.95         465.96
         393.90         391.12
         486.71         315.54
         242.62         248.14
         200.69         746.88
         105.03         314.34
         172.69         491.39
         369.27         610.36
         165.64         570.67
         923.68         505.65
         373.03         206.71
        1448.23         730.70
         147.00         226.81
         615.76         662.68
          39.81         389.19
         244.33         508.04
          42.09         629.44
         348.44         604.52
          48.29         611.92
         292.85         475.78
         345.24         398.74
         102.09         563.78
         129.39         712.44
         674.37         561.12
         176.34         595.40
         902.97         157.82
         658.08         488.19
         377.68         292.76
         500.18         759.16
          52.68         264.92
        1218.83         505.03
         333.98         726.19
         240.84         170.85
         636.01         211.51
         339.41         431.52
         197.60         338.39
         482.67         150.76
         330.01         365.38
         471.06         537.52
         407.05         413.47
         242.21         490.63
         178.28         521.51
          65.35         437.00
         807.40         359.21
         810.60         368.91
         160.16         146.44
         689.62         522.55
         904.42         517.44
         145.41         510.06
         146.37         259.75
         292.86         845.61
         379.69          84.01
          13.50         702.97
         940.38         595.34
         520.88         746.15
         448.49         206.36
         386.66        1001.96
         910.62        1125.81
         869.77         286.56
         404.83         919.53
         153.65         377.43
         288.81         989.76
          92.55         589.23
        1353.13         519.07
          82.57         929.44
         419.09         274.74
          73.33         603.87
         143.52         748.96
         291.69         169.50
         274.82         343.12
         391.97         947.55
        1033.45         384.78
          90.14        1007.86
         438.02         310.24
         261.62         234.02
         337.85         718.03
        1414.11         456.77
          51.84         465.72
         188.46         490.34
         526.04         852.73
          66.34         136.85
         475.94         928.73
         180.84         478.15
         141.88         488.21
         496.30         476.66
         651.25          21.87
         201.63         475.69
         260.42         579.11
         142.15         516.45
         249.62         879.93
         771.88        1044.85
         152.64         169.94
         293.79         303.79
          51.66         740.47
         265.29         798.32
         114.10         380.95
         937.13         784.81
         108.55         900.82
         373.13         693.36
         233.76         113.66
         280.56         294.27
         172.19         564.59
          18.67         301.52
          89.88         642.44
         144.59         316.34
         183.77         766.25
         139.43         134.52
         221.84         308.09
         578.19         657.86
         324.22         453.82
          34.78         769.87
        1215.63         273.25
        1310.07         426.51
         452.96         577.89
         568.57         797.45
         276.54         140.66
         185.50         648.16
          66.53         576.48
         136.50         237.72
         195.15         770.63
         144.00         708.47
         509.54         549.26
         320.68         662.02
         139.76         529.13
         109.92         339.90
         267.66         976.33
         228.26         651.43
         212.00         438.51
        1031.30         543.59
         462.33         679.25
         512.77         625.12
        1045.16         264.89
        1049.08         848.23
         316.57         436.96
         331.93         359.83
         219.74         616.11
         508.34         505.28
         331.31         237.10
         169.80         423.40
         794.12         479.38
         218.73         696.12
         602.86         255.43
         456.66         499.15
         660.20         630.17
         173.15         245.19
        1048.66         599.12
         167.29         373.24
         352.44         313.58
         386.16         334.41
         501.09         754.73
         272.38         294.19
        1076.39         261.49
         149.08         495.41
          24.00         128.80
         124.62         510.09
         163.80         212.54
         399.91         325.37
         277.91         536.10
         445.68         420.21
         214.88         279.03
        1029.21         333.14
          43.41        1003.26
         431.28         480.28
           7.50         619.79
        1266.97         471.87
         287.95         554.48
          67.55         354.70
         383.43         621.86
         221.33         580.77
         214.68         534.86
         753.41         641.36
        1251.23         292.43
         636.78         362.05
         173.56         786.63
        1151.71         469.97
         102.40         375.75
         435.03         268.61
         593.23         333.68
         274.89         401.89
         178.67         601.69
         281.60         321.35
        1220.45         222.77
         262.12         421.80
         832.60         380.21
         275.34         732.48
         487.42         246.89
          37.12         593.30
         790.07         422.69
         258.30         209.81
         461.92         664.42
         420.95         735.62
         219.88         857.26
         676.44         809.77
         326.99         817.79
         309.16         225.69
         364.98         471.79
         422.18         777.04
         508.24         362.35
          77.51         532.54
         896.81         648.90
         273.29         816.31
         218.33         819.87
         683.71         872.14
         339.16         608.68
         792.00         233.45
         114.03         264.18
         153.08         839.35
        1173.14         467.09
         182.20         395.33
         476.63         578.57
         219.21         847.51
         663.12         572.90
         246.23         209.62
         177.85         867.44
         160.20         387.23
         319.66         281.21
         229.36         785.09
         279.03         391.05
         479.84         413.27
         626.09         568.34
         897.41         545.01
         240.54         541.37
          75.52         187.58
         329.67         776.20
          54.21         975.68
         575.31         541.70
         218.27         295.67
         531.07         668.97
         364.32         451.59
         122.98         642.81
         749.06         272.73
         145.20         437.25
         100.52         155.29
         517.05         301.57
          37.08         303.62
         751.42         408.65
         400.10         409.91
         218.25         540.73
         215.27         660.95
          36.45         449.07
         106.03         772.74
         703.98         119.52
         161.54         254.95
         276.54         549.36
         104.61         559.37
         278.22         230.70
         642.87         369.90
         242.98         407.47
          61.82         759.23
         302.41         292.12
         298.39         418.85
        1756.13         821.65
         138.12         782.58
         338.74         366.96
         333.16         614.14
         258.76         872.34
          45.84         540.46
         187.62         217.72
         154.92         658.57
         270.58         425.16
         466.63         139.88
          31.27         667.97
         465.52         577.95
         316.80        1155.58
         420.31         623.06
         342.69         786.97
         144.95         389.90
        1464.43         481.41
          38.23         377.60
         581.82         662.70
         158.44         532.51
         907.39         398.77
         213.81         457.42
          50.85         409.66
         344.46         548.13
         760.97         194.93
         252.49         393.30
         296.17         305.94
         184.59         569.14
         468.70         884.89
         132.97         275.40
         211.36         513.45
         260.77         413.07
         122.19         639.75
          71.97         582.81
         970.11         571.56
         148.72         315.99
         116.71         467.54
         404.95         497.57
         191.63         565.13
         245.88         454.82
         152.75         543.67
          63.17         300.40
         487.09         217.61
         355.44         301.24
         261.52         837.97
         288.05         473.11
         225.55         656.26
         186.16         223.02
          97.33         603.36
         163.05         244.24
         270.67         629.11
         345.40         469.62
         257.11         263.53
         409.59         315.63
         853.74         503.06
         292.45         500.96
         714.01         496.52
         673.62         399.22
         294.54         752.03
         261.01         705.59
         188.68         437.52
         214.32         185.19
         268.96         623.25
         388.76         702.30
         318.78         323.84
         143.64         231.66
         179.33         257.71
         423.10         761.66
          68.57         269.10
         423.08         256.52
         234.81         374.52
         322.61         342.37
         138.36         507.75
          89.27         365.76
         704.68         496.24
         289.94         346.27
         227.20         481.63
         297.16         750.39
         441.52         522.25
         256.80         297.66
         105.32         397.45
         846.50         356.94
          88.27         636.63
         439.10         350.24
         410.98         346.16
         801.00         349.69
         540.15         522.94
         167.38         726.61
         743.39         680.28
         359.22         744.94
         211.45         729.23
         279.00         320.57
          42.72         371.20
         438.49         294.27
         360.60         174.59
         640.55         237.12
         333.48         439.26
        1210.77         771.59
         477.01         523.30
          55.14         639.26
         190.53         493.81
         313.45         272.46
         271.69         222.06
         482.06         543.63
          95.41         487.71
         106.99         341.83
          38.02         417.57
         792.34         450.61
          38.27         323.70
         438.74         524.53
         317.12         595.82
         464.14         564.65
          17.53         221.71
        1311.85         316.05
         767.71         894.94
         228.14         735.06
        1056.85         525.18
         119.73         189.69
         230.48         551.44
         280.67         265.50
         617.20         150.16
        1455.16         317.00
          60.10         639.51
         209.77         513.20
         131.58         566.60
         344.91         341.27
          25.56         134.10
         424.93         362.19
         222.74         408.29
         441.50         444.95
         153.39         272.98
         233.19         434.28
         155.07         236.94
         417.77         454.18
         124.65         142.75
         601.41         403.41
         418.57        1002.34
         375.50         348.85
         734.19         788.46
         220.60         628.06
         848.61         366.59
          54.95         786.16
         718.39         510.57
         177.35         447.48
         232.54         338.00
         541.50         331.54
         584.57         397.81
         278.27         679.41
         446.89         535.23
         186.09         936.21
         273.06         352.87
         836.15         469.16
          97.72         290.16
          37.31         489.73
         257.25         357.94
         516.18         760.98
         264.64         414.26
        1171.74         360.93
         193.87         398.13
         250.78         735.89
         421.97         224.39
         250.12         404.55
         175.57         189.53
         392.25         345.46
         187.23         775.92
         139.12         401.76
         605.26         531.02
         680.03         384.33
         542.46         182.06
         675.16         530.72
         362.47         508.62
         305.52         161.25
         227.16         302.98
          74.62         237.21
         127.73         163.09
         337.81         334.12
          64.78         560.05
         670.04         196.33
          98.03         270.48
         202.36         305.47
         151.92         311.13
         462.71         198.46
        1322.16         713.15
        1269.28         765.02
         759.18         656.88
         879.59         271.92
         489.89         278.73
         174.75         553.06
         159.14         625.32
         604.54         578.63
         215.10         597.08
          21.76         573.11
         340.02         762.97
          55.85         372.13
         425.72         645.83
         147.44         373.72
        1023.52         756.19
        1947.79         336.44
         115.00         470.68
          88.35         554.28
         344.47         217.91
         783.80         326.06
          47.05         478.76
         362.71         273.45
         676.05         591.90
         422.30         405.38
         237.07         310.40
         157.89         216.56
         444.13         427.65
         102.67         524.53
         122.27         244.95
         182.90         563.96
         135.93         507.05
         235.99         530.16
         391.79         364.30
         217.74         266.38
         276.10         498.20
         474.10         232.94
          66.51         433.27
          96.99         607.10
          31.19         567.50
          23.51         391.18
         541.48         548.76
         346.43         727.04
         903.86         372.13
         274.06         699.23
         720.92         276.34
         710.01         585.37
        1095.61         399.11
         246.61         630.22
         132.63         295.23
         291.71         291.41
         349.83         283.78
         476.42         637.34
         212.63         189.67
         594.62         723.33
         659.23         829.39
          92.40         486.93
         287.26         105.30
         172.40         583.10
         228.17         575.19
         209.99         333.52
         315.51         339.34
         266.55         842.39
         473.50         782.80
         189.72         239.28
         306.63         414.84
         610.05         456.37
         412.27        1176.13
         338.03         515.13
         666.31         306.87
         221.22         420.98
         102.17         524.35
         329.81         413.27
         209.32         377.46
         148.73         383.31
         372.06         748.99
         145.49         848.35
         451.98         195.34
          82.37         383.43
         232.27         404.97
         170.94         413.15
         488.75         666.30
        1284.25         513.66
         687.49         594.16
         480.57         809.10
         311.73         692.02
         694.92         694.46
         161.75         616.48
         311.18         380.57
         223.75         338.50
        1043.85         404.75
         424.22         298.55
         254.34         384.91
         737.13         664.28
         413.01         304.24
         689.87         366.48
         340.91         717.14
         913.62         515.07
          74.49         428.96
         275.20         340.08
         493.52         469.98
         290.02         540.59
         271.23         296.23
         321.81         504.70
         322.83         241.39
          88.98         292.83
         108.49         321.99
        1281.89         383.00
         908.04         159.85
         233.62         500.66
         422.98         334.96
         475.11         294.65
         340.80         722.95
        1110.63         406.67
         437.24         374.65
         364.40         505.26
         373.53         337.14
         189.18         368.05
         134.15         590.07
          57.84         199.85
         222.74         437.27
         611.98         708.25
         243.37         805.04
          97.89         487.01
         434.65         773.25
         408.83         480.20
          36.84         202.88
         357.52         471.69
         537.19         337.35
         183.25         303.41
         237.32         839.33
         738.19         598.11
         220.13         440.92
         440.63         260.12
         608.65         362.23
         214.03         642.17
         235.86         344.06
          73.47         307.27
         462.76         574.97
         664.28         830.84
         699.46         565.32
          26.50         721.52
         494.35         558.95
          92.82         272.11
         394.66         731.06
         188.87         935.56
         279.24         365.65
         820.72         474.82
         125.75         211.88
         145.16         185.91
         711.72         368.25
          20.01         215.06
         147.06         308.45
         168.94        1029.94
         323.24         373.69
         539.38         316.96
         441.93         617.11
          58.29         255.24
         340.97         898.77
         602.46         802.68
         880.20         662.54
         173.43         529.74
         342.49        1210.41
         694.38         738.92
          66.27         222.28
         354.61         661.75
         240.40         557.15
         428.62         230.03
        1045.66         566.78
         428.85         505.25
          68.06         711.73
         555.37         573.32
         131.62        1007.45
         205.15         938.08
         258.25         749.05
         161.95         242.83
         575.34         713.70
         474.11         762.07
          85.13         373.78
         280.00         147.21
         288.76         663.19
         105.65         605.96
        1626.74         496.45
         449.58         423.77
         737.71         308.72
          77.29         931.41
          98.42         288.96
         392.66         310.98
         148.64         229.12
          54.44         399.30
         576.13         149.80
         188.93         278.53
         310.17         264.79
          94.33         362.86
         670.48         413.52
          69.29         366.81
         166.98         256.50
         381.26         534.17
         264.53         529.23
         459.43         327.80
         698.04         348.40
         304.51         686.75
         755.75         449.77
         471.37         694.43
         561.42         234.88
         197.28         299.27
         316.35         332.23
         203.74         461.41
         983.83         464.98
         748.52         842.77
         378.43         499.40
        1040.66         335.45
         110.88         635.36
         330.35         410.56
         382.34         383.56
         824.40         511.35
         582.69         419.93
         111.08         542.67
          70.50         743.87
          87.77         805.11
         792.38         329.53
         226.47         603.08
         208.94         433.70
         103.13         572.64
         283.99         388.81
         306.89         960.74
         198.55         432.37
        1254.25          49.13
         325.33         703.25
         256.89         595.00
         191.57         375.76
         343.72         575.39
          22.46         513.36
          59.24         417.51
         134.14         581.56
         864.09         285.57
          88.19         722.23
         587.16         400.53
        1090.83         683.77
         270.90         968.97
         295.28         235.72
         535.44         162.13
         697.10         504.51
         182.50         369.92
         249.02         324.10
        1282.47         347.02
         352.89         243.99
         413.56         518.79
         171.28         781.44
         439.90        1061.84
         392.31         811.42
         244.28         670.66
         956.61         302.27
         558.31         868.03
         880.94         565.10
          55.55         530.57
         510.83         360.79
         899.48         859.32
         369.92         484.30
         384.16         481.39
         222.90         547.48
         557.88         629.89
         515.61         607.59
         524.69         129.83
          63.54         611.70
         458.36         785.62
         174.83         689.61
         579.56         641.97
         317.01         388.42
         455.40         273.18
         150.36         368.83
         767.78         284.09
         250.75         481.34
         801.19         752.57
         198.53         186.53
          68.42         131.19
         192.05         361.00
          77.19         416.92
          53.59         363.99
         730.87         182.93
         362.64         469.04
         697.34         164.55
         378.47         575.92
         202.97         319.98
         226.05         367.08
          49.84         197.25
         268.53         503.30
         139.60         778.95
         549.44         558.94
         293.83         723.75
          76.77         755.79
         236.79         289.60
         467.17         805.83
         173.27         261.99
         183.31         748.20
        1040.41         445.40
         349.86         606.73
         159.22         283.18
         486.90         450.25
         432.04         237.63
        1255.10         945.08
         838.02         381.76
          52.16         872.82
         240.02        1060.10
         177.22         541.01
         105.28         221.41
         253.40         594.20
         512.37         125.62
         368.06         206.99
          36.89         752.60
         349.75         263.83
         211.10         336.20
         997.68         633.04
         371.65         334.94
         182.52         335.31
          62.59         676.76
         333.49         387.17
         160.29         646.79
         493.08         667.37
         236.29         529.34
         371.45         207.68
         849.15         399.28
         798.45         348.62
         229.12         660.89
         273.20         418.74
         384.82         411.39
         753.44         328.27
         631.02         632.88
         162.05         127.75
         547.03         452.02
         142.45         345.92
         281.43         298.66
         379.73         578.02
         177.50         185.15
         476.55         433.70
         286.60         442.68
         356.65         151.34
         603.85         574.54
         152.90         139.04
         153.42         571.44
          96.02         834.87
         241.24         471.53
         334.74         478.69
         305.11         496.56
         925.31         580.33
         255.73         407.26
         253.01         245.20
         500.20         430.07
        1732.42         358.47
        1160.88         788.13
           6.46         619.57
         644.72         362.92
         251.90         859.77
         487.31         564.84
          93.77         788.90
         720.65         260.50
         102.44         557.74
         608.94         532.44
         273.45         545.37
         161.57         602.09
         176.09         411.13
         222.28         601.81
          23.55         333.74
         124.18         666.61
         262.66         375.80
          38.30         205.75
         679.09         636.54
         512.35         356.51
         206.13         494.86
         258.71         871.75
          31.51         524.41
         551.31         419.03
        1074.96         410.74
          70.71         697.44
          90.16         347.34
         777.17         492.76
         210.60         523.29
         211.02         279.02
         231.72         219.85
         157.35        1013.06
         101.34         284.74
          14.83         322.46
         821.17         854.75
         123.56         513.12
         424.06        1030.65
          44.97         380.35
         522.17          78.10
         336.37         235.88
         533.81         824.24
          76.24         494.09
         426.84         604.87
         192.32         169.99
         748.03         588.22
         418.31         453.35
         139.50         357.40
          10.71         395.28
         973.34         577.50
         260.38         573.69
         783.12         471.35
         316.92         286.37
         111.37         193.46
         252.56         167.64
         117.67         844.52
         254.31         325.79
         252.78         532.43
         375.42         450.17
         221.42         225.38
          49.40         627.05
         602.98         523.51
         370.33         736.93
         160.25         608.27
          86.80         231.96
         328.86         554.91
         432.76         551.19
         422.46        1047.28
         104.76         446.67
          24.36         692.56
         205.55         255.38
         140.23         441.68
         592.33         419.47
         248.90         725.28
          71.41         716.80
          67.23         627.33
         184.98         793.73
         132.89         450.40
         622.56         317.23
         132.04         213.44
          17.07         647.32
         489.70         166.10
        1063.47         329.04
         143.33         730.28
         971.69         473.64
         131.62         458.71
         147.86         717.19
         398.16         838.14
          51.65         449.47
         265.53         495.40
         856.77         542.37
         505.97         507.45
         344.09         374.96
          91.73         282.64
         615.72         386.41
         215.67         508.53
         510.99         253.35
         236.30         765.34
        1215.74         162.67
         118.45         556.05
         227.13         624.61
         102.30         692.22
         190.19         288.62
         406.64         365.79
         466.75         301.10
         332.61         648.50
         273.18         496.52
         537.93         470.39
          32.13         523.21
         539.83         542.96
         456.49         562.48
          43.06         428.16
         623.87         827.12
         168.81         614.48
          49.01         411.82
         960.38         791.85
         115.46         663.53
          28.41         229.95
         346.67         815.81
         132.62         153.21
         435.06         713.73
         116.24         525.14
         155.25         367.78
         409.30         250.85
         429.48         227.08
         528.50         309.60
        1192.90         693.17
         708.58         608.15
         171.61         471.12
         164.19         770.73
         893.64         753.20
         330.49         699.45
         554.82         667.95
         166.88         516.55
         343.44         420.32
         149.06         660.05
         312.90         406.06
           8.70         366.50
          82.58         282.17
          22.52         742.51
         326.40         604.69
         203.91         420.89
         599.33         721.41
         353.45         733.74
         119.81         312.07
          98.93         531.45
          11.58         428.40
        1000.36          77.17
         227.24         449.46
         271.01         111.15
         187.47         634.30
         361.17         579.96
          37.47         740.42
         382.85         388.09
         544.65         391.67
         162.78         443.61
          64.78         634.52
         505.70         275.37
         226.95         417.09
          47.91         551.39
         260.91         646.88
        1549.98         285.58
         185.64         456.12
         224.98         297.37
         199.20         597.74
         400.75         385.47
         381.72         638.60
         418.89         311.34
         334.84         769.28
         646.44         377.34
          64.26         618.58
         169.09         773.83
         156.37          87.54
         449.05         449.43
         653.11         976.72
         358.74         384.66
         781.03         454.28
          88.13         402.30
         602.24         549.28
        1449.42         642.44
         644.56         515.63
          58.96         763.82
        1379.65         641.51
         764.12         472.81
         124.16         144.96
         189.56         448.49
         390.92         430.56
         310.80         445.25
         457.47         594.99
         326.86         466.94
         204.98         510.60
         537.40         338.99
        1382.61        1064.29
         123.06        1082.03
         145.57         481.03
         109.74         326.34
         294.31         335.48
         658.16         536.83
         110.03         400.69
         296.20         958.93
         753.71         260.90
          97.65         404.81
          63.51         175.30
         292.91         621.44
         118.06         925.03
         465.36         565.83
          78.52         131.66
         436.87         226.11
         362.96         809.00
         279.82         208.86
         957.52         708.96
         263.27         485.17
         125.55         262.70
         547.37         541.17
          70.23         645.32
         396.68         533.21
         330.12         334.66
         243.01         443.48
         116.33         419.45
         665.22         432.33
         130.18         279.44
          95.49         205.83
         635.08         539.32
         446.33         203.19
         265.02         336.13
        1383.93         976.84
         391.41         415.53
         541.28         632.98
          55.62         160.54
         146.11         569.09
         220.01         500.72
         268.07         199.19
         617.19         249.52
         288.43         589.59
         909.87         343.38
         405.54         616.05
         260.08         598.01
         330.01         438.67
          41.80         240.91
        1003.19         417.32
         121.44         215.05
         545.75         292.58
         170.57         618.73
        1224.43         205.52
          90.16         199.08
         405.68         380.12
         492.61         688.15
         449.70         535.02
         244.75         270.85
          57.46         536.39
         783.26         168.04
          81.99         797.81
         821.67         788.13
          88.45         310.64
         119.49         463.54
         655.36         901.84
         532.99         367.07
         409.15         453.37
         298.72         434.20
          77.46         103.80
         572.22         466.03
         143.08        1048.29
         450.07         538.52
         351.55         413.49
          83.25         576.74
         115.00         275.64
         180.36         570.07
         181.35         332.50
          84.47         445.36
         349.27         469.26
         613.80        1003.23
         424.28         317.09
         151.18         350.63
          23.20         561.37
         169.76         438.22
         457.84         523.95
         129.50         573.69
        1177.94         718.80
         386.29         454.72
         551.29         214.92
         416.56         382.57
         113.72         540.62
         860.09         207.59
         131.93         472.63
         653.25         669.94
         216.62         383.63
         797.45         801.65
         472.23         618.52
         247.80         591.43
         304.15         990.30
         353.24         414.64
          77.77         664.21
         506.29         319.77
         110.89         336.00
          84.78         509.24
          93.30         251.31
         235.33         477.52
         730.79         499.42
         529.09         731.17
          64.06         701.58
         149.64         441.47
         518.82         396.01
         215.86         436.34
         506.64         631.17
         326.59         452.59
         257.01         353.75
        1014.31         405.51
         179.31         348.61
         672.03         355.75
         784.79         460.34
          46.43         590.43
         311.39         566.78
         255.15         148.33
         512.12         669.44
         936.11         501.03
         977.00         662.07
         172.28         368.38
          18.25         495.12
         138.10         968.68
         555.98         489.59
         705.11         676.19
         617.61         463.19
         825.36         798.43
          46.37         463.56
         586.47         172.72
         159.18         425.45
          95.27         653.25
         702.58         899.66
         378.11         374.72
         279.54         584.00
         444.71         966.29
         128.30         375.17
         449.89         435.65
        1007.70         404.52
         525.75         150.77
         123.43         520.20
         487.54         727.74
         511.72         338.13
         645.94         591.21
         711.53         545.44
         170.72         854.67
         144.70         190.82
         221.83         423.86
          15.81         445.37
        1400.44         333.22
         316.54         627.23
         739.65         793.70
          76.50         360.49
         414.11          90.41
         306.34         590.69
         309.78         407.80
           3.09          82.40
        1185.10         561.12
         145.53         506.19
         729.05         352.79
          56.16         352.53
         602.05         371.32
         118.92         986.85
         164.17         868.77
          85.58         324.87
          86.74         448.56
         353.71         307.20
          77.11         516.62
         543.36         605.65
         434.84         190.03
         152.08         481.34
         821.06         443.84
         141.24         648.79
          31.56         522.46
         641.90         853.19
         356.28         302.87
         410.15         858.87
         968.55         262.87
         773.33         553.42
         242.09         376.22
         806.21         480.79
         535.64         312.18
         119.69         589.56
         174.65         925.68
         607.20         515.63
         255.06         661.66
         182.41         417.42
         683.73         396.01
         253.63         428.80
         580.96         742.60
         931.05         911.75
        1668.87         330.49
         806.61         639.05
         447.74         753.92
         560.28         619.08
           3.60         834.31
         327.96         971.99
         171.07         760.37
         756.80         488.97
          12.31         572.44
        1908.61         652.15
         594.38         213.29
         444.23         420.01
         801.27         360.98
          52.73         465.68
         276.74         494.92
         326.23         642.72
         307.55         923.43
         236.72         563.54
         164.82         479.94
         253.07         340.84
         140.97         505.78
         751.85         657.38
         506.16         359.97
         149.03         431.10
        1355.78         346.46
         321.31         508.53
         305.81         553.40
         211.31         162.76
         255.27         568.24
         183.10         381.42
         135.87         865.46
         521.44         742.75
         134.63         691.41
         197.40         918.03
          87.76         298.75
          11.66         225.12
         295.69         704.59
          88.82         457.58
         541.68         566.60
         734.56         381.54
         809.21         535.78
         347.89         417.11
         310.03         401.91
         420.78         243.01
         423.39         599.37
         302.81         598.26
         100.76         523.49
          66.92         174.61
         120.29         634.89
         575.26         320.71
         331.35         215.63
         320.91         309.56
         142.79         539.60
         289.35         664.54
         286.82         735.87
         170.56         406.61
          78.03         364.57
         404.33         471.66
         124.97        1011.51
         462.99         952.99
         529.29         499.09
         146.61         556.21
         124.56         391.87
         166.71         319.30
         563.14         399.60
         678.68         402.08
         528.44         785.27
          34.16         718.07
        1103.60         260.30
          39.53         266.49
         341.81         282.60
         331.65         496.34
         552.55         572.13
         279.39         329.63
          48.72         398.28
         462.02         478.23
         112.65         835.99
         192.10         741.83
         776.39         202.48
         127.00         692.41
          96.93         561.37
         491.57         612.20
         614.84         572.16
          10.50         752.50
         184.59         450.86
         499.98         673.02
         312.51         499.93
         665.31         628.11
         157.10         988.83
         405.64         598.77
         313.30         453.00
         445.88         457.72
          75.95         192.53
         372.69         464.76
        1644.10         111.01
         325.48         473.61
         381.82         629.42
         682.85         386.94
         306.98         918.47
          34.91         758.17
         186.86         196.90
         153.05         330.84
          71.82         798.86
         922.64         360.77
          92.98         295.56
         375.47         347.62
         221.82         295.06
         172.52         442.35
         267.25         538.82
          34.80         656.44
         169.73         155.32
         179.39         428.77
         104.49         152.97
        1040.65         445.48
         355.87         135.62
         283.88         383.87
         206.96         287.86
        1093.05         296.77
          29.87         330.92
         473.05         561.28
         313.38         580.92
         155.77         284.21
         527.27         740.61
         260.49         600.91
         520.46         404.41
         658.49         297.76
         500.66         582.79
         253.98         907.51
         316.76         247.17
         304.69         572.96
         123.69         903.21
         976.50         364.59
         787.32         252.60
          36.43         539.78
        1646.82         891.06
          62.41         784.89
          50.96         519.09
         267.83         671.13
         152.54         697.20
         615.93         687.35
         171.84         270.57
         186.62         502.70
         818.95         230.83
         406.50         254.55
         275.67         506.07
         168.91         541.28
         862.37         393.76
         404.70        1030.25
         313.23         721.23
         553.42         228.26
         236.21         678.06
         345.22         365.77
         369.35         490.07
         198.74         366.69
         371.31         504.00
         157.22         385.50
         184.73         313.67
         374.03         449.39
         320.79         431.04
         216.64         380.61
         343.85         322.72
         444.95         528.46
         164.76         633.35
          31.30         492.52
         514.83         294.76
          44.45         290.69
         762.67         197.20
          47.19        1050.02
         120.74         352.68
         130.36         423.73
        1448.51         152.45
         224.54         421.64
         185.73         470.12
         256.85         585.61
         191.50         225.79
         717.87         618.00
         214.39         282.73
         543.68         261.32
         890.18         276.42
          96.53         196.67
          43.02         251.26
         161.54         212.13
         559.98         452.64
         348.07         337.06
         434.70         563.47
         113.23         292.29
         357.16         825.98
          63.41         333.90
         103.31         157.49
         399.06         496.56
         806.64         183.45
         232.40         227.01
         538.88         245.19
         187.38         141.47
         560.79         547.85
         160.52         469.68
         389.35         174.34
         666.45         534.74
           6.67         730.64
         734.27         566.87
         191.80         349.98
         271.38         656.88
        1025.32         801.31
          78.78         736.93
         410.81         383.77
         179.27         364.43
          41.07         389.19
         268.58         664.00
          82.28         692.83
         503.43         538.24
         320.42         325.90
          15.03         478.69
         333.02         612.72
         655.77         159.80
         191.80         704.92
         387.73         284.71
         711.81         318.74
         425.00         208.12
         184.87         329.95
          86.46         834.82
         884.97         437.31
         177.78         385.80
         221.57         344.67
         908.48         230.06
         445.53         430.41
          29.53         461.72
         127.79         927.63
         108.18         865.22
         648.30         386.91
         370.67         470.42
          63.45         398.41
        1042.99         180.99
         146.28         314.02
        1232.26         610.65
         702.77         500.80
         114.08         153.06
         244.78         690.99
         712.86         710.36
         248.87         203.01
         387.05         216.48
         252.91         498.03
         181.31         754.86
          60.11         292.74
         354.32         597.17
         155.42         353.49
         552.17         184.74
         332.71         839.92
         114.61         278.16
         461.73         440.53
         493.72         819.95
         183.81         424.10
         328.40         487.15
         128.40         690.74
         219.95         973.57
          83.45         819.82
         659.97         535.40
         305.93         236.34
         323.76         479.94
          83.11         556.94
         396.01         280.50
          78.15         477.76
         168.73         469.49
         459.66         288.07
         131.83         517.24
         274.90         898.34
         247.63         265.19
         320.39         391.90
         346.00         836.92
         298.92         439.13
         104.11         700.46
         703.74         446.30
         254.29         354.23
         510.11         105.61
         128.46         224.16
         166.70         377.45
         183.90         314.84
         184.35         790.12
         116.74         405.93
          29.81         605.91
         237.55         390.39
         107.26         387.88
         370.17         316.50
         595.42         375.58
         303.17         579.65
         158.10         517.75
         811.85         353.65
         354.05         591.99
         587.36         489.20
         104.13         484.25
        1121.97         343.43
         639.85         725.85
         425.44         492.26
         509.62         794.62
         233.57         331.40
         163.91         631.07
          97.44         778.14
         628.10         467.02
         268.06         735.04
         911.57         539.25
         189.38         748.98
         260.62         724.66
         740.30         565.64
        1567.16         505.47
         132.05         377.53
          11.53         226.20
         771.47        1020.93
          14.44         229.44
          61.63         941.04
         128.80         503.72
         484.30         285.18
         385.54         295.14
         111.49         704.15
         304.32         554.65
         991.93         375.32
         481.14         446.40
          19.78         410.55
          57.91         504.27
          42.35         574.87
         437.61         571.51
          77.27         659.11
         566.90         632.34
         660.19         654.12
         102.92         402.92
         178.94         669.38
         253.32         221.67
          91.72         573.73
         690.28         368.22
         323.33         567.89
         162.25         847.31
         494.11         978.46
          41.33         932.94
         525.71         446.32
         327.49         292.48
         369.46         160.82
         819.60         567.75
          22.43         296.95
          24.62         327.15
         916.64         401.64
         773.44         567.66
          47.52         555.66
          36.62         365.04
         148.16         628.30
        1828.87        1137.14
           8.73         204.61
         301.43         309.60
         639.86         684.01
         686.56         452.64
         695.61        1015.41
         362.57         626.85
          30.46         720.67
          97.08         280.73
          57.44         657.39
         252.63         376.22
         500.63         639.85
          84.96         295.64
         219.32         295.28
          94.89         242.36
         574.34         626.93
         370.63         890.56
          28.53         257.58
         112.82         485.52
         444.81         481.85
         726.57         509.34
         453.85         215.10
          13.48         890.00
          16.72         373.44
         359.14         536.36
        1703.28         176.41
         307.93         146.04
         703.69         463.79
         214.96         701.97
          43.39         468.78
         414.99         820.89
         571.92         444.24
         153.51         692.09
         500.36         540.27
         921.08         570.46
         187.76         634.24
         608.91         903.03
         158.36         493.95
         193.79         367.85
         216.50         258.76
         702.98         161.05
         216.35         739.19
         103.76         590.08
         319.72         444.76
          75.17         674.94
         639.47         498.25
         471.42         929.85
         118.49         476.21
         354.30        1028.68
         339.12         715.12
         723.41         506.99
         274.88         402.80
         571.04         176.99
         742.93         469.38
         254.76         278.30
         124.32         198.54
          10.64         704.95
         121.73         224.69
         196.38         240.81
         245.19         647.78
        1475.47         477.36
         855.63         599.93
         648.24         378.82
         111.27         205.77
         194.06         422.82
         157.53         435.15
         724.46         279.66
         643.39         473.12
         525.21         120.69
         382.45         323.83
          83.61         457.15
          79.92         712.04
         530.98         413.75
         364.21         624.59
        2200.88         632.56
         321.93         401.05
         198.23         723.08
         535.78         397.19
         417.12         695.19
         111.80         210.76
         547.53         724.12
         216.67         304.66
         581.25         405.61
         387.36         601.93
        1468.92         692.66
         102.90         120.76
         515.33         500.17
          68.62         567.97
         535.18         321.51
         417.03         455.45
         493.07         159.24
        1358.47         329.40
         722.02         409.37
         411.26         419.70
         362.11         335.26
         184.34         252.51
         228.47         259.33
         433.47         445.38
         283.72         582.00
         659.88         499.53
         200.91         584.91
         201.04         289.64
         452.11         267.49
         242.94         106.42
         154.35         651.80
         146.94         676.94
         540.22         327.06
          95.63         318.61
         231.58         823.96
         310.66         380.85
         328.94         494.48
         192.46         716.38
         168.90         392.93
          75.36         111.26
         199.52         610.76
         376.31         329.15
         830.77         456.41
         301.87         363.59
         892.47         219.65
         996.68         528.38
         369.80         481.15
         187.41         748.67
         107.10         658.16
          23.82         305.45
         287.82         472.30
          65.98         184.56
         220.74         745.44
          94.45         335.45
         591.67         367.00
         396.76         497.27
         201.82         246.18
         647.52         306.30
         808.01         321.72
         476.61         129.08
          62.33         653.29
         185.91         624.52
         105.39         467.69
         342.83         628.55
         327.83         759.19
         386.67         608.62
         785.63         306.37
         413.47         468.02
         260.28         180.02
         182.98         216.05
         283.66         352.14
         676.49         355.35
         375.97         253.79
         939.57         371.91
         123.63        1153.55
         188.27         811.87
          51.57         683.72
         191.72         357.29
         646.81         507.16
         168.44         543.51
         142.52         639.74
          84.08         770.17
         339.84         439.19
        1085.58         370.64
         361.31         408.48
         429.85         283.22
          88.96         425.57
         287.57         434.62
         287.17         567.09
         251.39         253.35
          47.36         319.67
         569.20         404.16
         402.18         388.49
         217.68         765.59
         111.05         142.43
         203.81         384.24
          59.25         663.37
         471.95         484.52
         325.02         404.36
          93.29         540.06
         337.28         166.69
          39.33         244.84
         657.20         545.09
          74.92         462.54
         320.45         406.16
         177.14         327.98
         288.80        1117.63
         361.15         387.18
          91.97         259.01
         763.75         306.41
         344.78         128.85
         124.17         629.09
         131.74         555.08
         169.94         320.11
          75.26         273.30
         401.21         362.49
         538.76         173.06
         258.34         452.24
         844.65         491.39
         173.56         447.00
         263.84         396.42
         304.24         668.54
         240.39         582.27
         172.64         418.92
         238.36         717.03
         131.30         456.38
        1047.85         523.49
         530.59         373.02
         206.10         544.63
         160.66         192.58
         307.88         606.21
          78.39         705.98
         862.97         456.35
         148.76         433.33
         150.18         440.94
         836.79         756.56
         466.74         538.95
         197.68         678.23
         750.34         388.45
         243.03         697.53
         265.93         613.78
         837.38         630.54
         294.77         816.91
         330.10         184.19
         658.69         640.59
         317.86         532.92
         225.02         622.89
         972.51         402.84
         190.52         308.53
         862.96         495.98
         314.42         365.70
         610.50         273.07
         232.55         587.90
         527.29         690.08
        1105.07         534.34
         409.71         296.26
          50.39         189.74
          99.85         506.90
         149.70         524.95
         138.81         589.45
          48.52         309.96
         104.93         532.38
         169.02         678.29
        1019.57         454.70
         741.16         622.43
         351.69         285.35
         462.54         625.46
         931.83         637.34
         473.61         122.26
         203.33         359.05
         462.69         998.16
         204.01         285.59
         240.31         678.56
         145.92         328.92
          34.44         435.46
         434.26         646.92
         168.67         264.92
         784.72         459.80
         437.58         250.77
         411.95         865.29
         785.49         416.64
         901.24         334.57
          74.22         429.92
         254.70         829.28
         291.79         344.81
         398.17         263.02
         101.04         635.97
         280.03         123.82
         387.99         594.20
         569.88         999.52
         363.18         467.46
        1066.53         507.26
         265.53         363.10
         260.77         531.07
         557.07         543.66
         512.43         727.90
         196.59         436.47
           4.29         275.93
         214.27         344.49
         694.23         674.26
         200.73         350.67
         391.09         409.55
          26.65         366.73
         443.80         437.18
         518.70         510.58
         229.87         432.87
          68.87         684.47
          78.03         884.38
         220.56         814.36
         347.32         156.42
          64.01         392.46
         533.82         349.71
        1003.24         534.72
         723.20         341.86
         382.37         290.52
        1120.62         656.88
         206.25         522.79
         398.43         352.03
         234.08         367.96
         189.41         466.92
          96.70        1017.07
         521.21         307.20
         350.36         375.74
          22.77         489.80
          16.81         424.52
         216.51         447.32
         678.08         329.50
         140.85         371.34
         864.30         536.85
         116.03         351.07
         492.96          81.99
         172.62         439.05
         480.54         471.48
         773.58         506.65
          42.08         772.83
          70.76         356.05
          25.04         133.26
         212.24         677.67
         884.50         379.53
         240.23         711.00
         307.42         298.82
         743.72         587.65
         279.66         424.34
         244.06         161.56
         495.88         335.97
          69.71         229.71
         294.11         490.05
          69.28         623.07
         182.45          54.06
          97.67         454.38
         285.93         482.46
         386.63         941.78
         155.86         232.34
         766.26         410.63
         173.94         282.83
          81.72         414.69
        1027.01         402.36
         565.13         949.69
         638.47        1299.04
         454.06         490.77
         920.34         688.88
         127.41         228.73
         729.10         581.41
         596.98         408.66
          64.22         220.92
          39.53         288.98
         166.50         413.32
         207.11         744.38
         199.79         574.45
         613.78         378.55
         224.79         900.03
          81.27         258.03
         311.21         462.06
         227.63         341.51
         302.54         471.85
          92.00         360.29
         167.36         262.21
          97.30         508.68
         541.08         521.38
         305.14         475.04
         266.81         680.51
         530.89         725.08
         207.21         290.06
         328.79         622.49
         194.85         436.33
        1389.78         149.34
         536.21         171.39
         813.09         437.37
          89.72         382.64
          12.44         180.11
         216.02         540.06
         435.72         325.74
         137.60         897.48
         732.85         691.23
         374.63         723.12
