    #Hard_water    #Hard_water
   #Erot(W)cm-1    #Speed(m/s)
         438.74         504.63
          52.41         628.63
          74.59         601.06
         950.03         597.62
         535.73         770.13
         257.98         265.76
         134.11         663.50
          62.61         332.20
         481.62         484.99
         159.29         719.64
         334.71         582.72
         189.69         436.36
          76.66         564.75
         522.75         483.66
         379.20         893.17
         322.98         236.52
         141.97         320.06
         637.78         556.37
        1125.53        1009.74
         255.00         312.50
          50.86         444.42
         138.55         447.50
         246.58         429.14
         137.93         471.06
          33.43         672.58
        1042.54         232.17
          77.61         699.71
         236.70         343.74
         324.93         451.21
         917.88         404.13
         440.02         530.01
         255.38         435.07
         470.41         541.30
         423.61         383.24
         145.68         581.46
          74.88         198.27
          31.66         312.81
         479.99         536.65
         270.25         512.14
         279.19         676.73
         318.30         392.91
         297.38         190.28
          98.27         718.41
         126.11        1114.45
         526.09         268.27
         370.86         226.41
         261.17         555.13
          43.73         521.44
         280.26         558.87
         316.92         478.53
         339.51         756.72
         815.22        1138.41
         323.10         472.04
         245.33         454.61
         794.05         320.87
         171.03         740.75
         206.73         446.34
         383.95         771.76
         293.39         434.66
          33.65         258.42
         357.59         517.01
         491.27         706.61
         395.67         399.74
         472.23         601.57
         280.02         396.60
         238.98         188.80
         251.08         292.41
         502.56         160.62
          28.18         590.01
          14.65         412.66
         299.55         292.93
         943.84         488.99
          84.04         403.48
         949.71         480.17
         416.73         418.05
         207.09         288.43
          19.75         342.36
         209.73         354.16
         182.42         764.79
         257.90         605.75
         129.08         348.22
         100.62         341.83
         326.25         446.76
         509.04         318.90
        1203.37         487.51
         176.36         454.18
         457.12         508.19
         486.59         409.07
         509.76         473.32
         391.53         430.82
         455.57         343.23
         877.78         209.97
         446.49         379.45
         153.54         417.76
         573.97         823.14
         377.27         824.74
         810.94         493.92
         455.62         396.22
         282.05         436.61
         496.03         361.94
         377.41         811.08
         850.51         590.45
         231.14         401.04
         177.09         518.61
         180.54         612.33
         202.23         214.41
          62.77         289.18
         530.69         880.92
        1092.46         561.29
          52.54         288.80
         285.19         409.79
         180.53         560.39
         293.04         493.57
         360.37        1103.92
         403.89         690.87
         163.96         622.79
         476.56         335.41
         368.98         228.53
         153.01         769.27
           5.47         325.96
         485.86         561.50
         393.59         484.25
         265.20         625.55
         712.09         637.22
          55.47         903.78
         388.79         555.96
         149.42         558.41
          32.23         613.32
         141.76        1445.53
          98.72         260.52
         181.95         520.37
         252.16         227.20
         530.68         441.22
         165.30         624.88
        1157.13         601.10
         459.36         772.69
         332.25         257.47
         211.22         779.19
         166.76         436.46
         249.18         630.57
         105.18         248.84
         262.32         433.21
           7.94         297.36
         189.68         342.33
         209.81         289.50
         152.12         711.62
         277.50         434.39
         230.17         349.82
         565.14         381.84
         551.31         275.87
         210.96         530.84
         149.25         524.53
         208.67         686.80
         380.26         609.77
         646.53         442.29
         337.44         471.12
        1305.56         376.59
         261.11         346.70
          20.23         556.90
          63.46        1039.96
         257.14         368.06
          78.53         187.30
         119.54         706.28
         273.16         598.13
         261.57         257.90
         732.46         504.07
          40.04         533.72
         101.55         664.88
         182.12         562.93
         411.57         236.08
         475.04         915.40
         998.83         170.49
          51.56         617.03
         290.81         670.32
         761.47         362.69
         235.39         448.20
          89.15         658.25
         235.66         423.03
         136.67         151.73
          52.47         269.65
          85.10         740.26
          86.29        1017.89
         365.01         189.79
          10.82         668.76
         491.85         774.23
         420.43         616.71
         276.72         742.67
         287.36         227.00
         473.94         805.13
         384.00         944.17
         105.32         540.91
         397.59         847.41
         309.12         264.50
         813.78         527.34
        1030.71         621.85
         465.45         394.27
         615.30         336.15
         396.82         316.39
        1017.08         315.55
         233.48         342.03
         263.23         474.45
          95.27         402.91
         634.30         199.55
         282.54         792.01
         537.33         626.99
         312.69         452.59
         185.66          90.72
         703.81         360.96
         362.36         457.40
         186.23         843.86
         183.03         123.13
         668.61         393.70
         546.57         344.33
         446.08         719.98
         317.34         479.63
         135.24         614.78
         418.33         369.89
          99.75         396.52
         368.15         410.16
         133.95         565.00
        1053.72         877.58
          22.20         552.94
        1064.33         381.66
         158.59         367.44
        1010.40         325.27
          68.90         560.01
         393.94         676.96
         356.34         557.20
         403.61         242.66
         336.14         232.43
         199.57        1082.03
         200.40         589.21
        1168.68         602.65
         195.34         565.93
         339.86         392.79
          99.32         420.60
          27.55         687.42
        1401.15         434.57
         205.98         345.24
         116.91         273.04
         146.06         220.33
         180.23         637.40
         609.42         388.02
        1181.88         429.99
          49.30         162.82
         301.94         495.56
         291.62         557.06
         372.42         583.02
         415.44          95.55
         527.87         596.76
          98.35         495.65
         192.00         595.01
         393.26         185.55
         621.06         467.51
         260.07         518.03
         477.38         547.79
         200.07         266.10
          90.32         420.66
         171.39         398.25
         190.41         411.99
         139.47         414.48
         186.39         636.57
          81.12         527.77
         219.87         352.02
         242.75         443.96
          52.45         561.88
         278.51         525.47
         134.02         781.56
         233.09        1061.32
         167.46         589.66
         247.42         578.14
         302.90         604.11
         160.84         699.88
         119.67         821.07
         143.00         286.44
         320.53         436.72
         226.23         433.64
         293.91         505.05
          17.16         641.85
         145.38         638.48
         601.12         108.69
         594.33         353.03
          87.08         289.21
        1051.71        1089.81
         302.89         152.42
         177.52         360.31
          72.40         685.76
         535.02         717.88
          72.07         217.48
         281.24         851.90
        1244.10         452.83
         480.69        1152.58
         318.30         658.15
         131.93         280.57
         423.45         679.60
         188.06         552.97
          65.56         355.81
         212.30         457.90
         217.22         249.04
         382.19         502.37
         180.61         284.79
         522.43         622.76
         109.40         555.55
         153.58         221.91
         758.32         473.80
          71.15         583.06
         336.83         523.79
         506.97         390.22
         575.77         630.71
         252.45         309.16
         193.95         215.61
          13.03         358.62
          71.67         253.97
         706.88         897.10
         136.13         669.84
          95.82         672.34
         583.96         263.74
         183.27         805.57
         430.53         277.60
         676.23         814.74
          13.05         361.05
         146.90         544.82
         104.84         316.04
         916.92         402.65
          90.76         703.02
         180.36         216.35
          21.37         429.21
         489.87         203.80
         300.83         922.55
         329.82         263.90
         340.39         563.22
         317.31         516.83
          82.95         856.67
         170.31         656.66
         483.82         249.74
          97.73         626.38
         192.21         450.52
         433.43         400.50
         157.03         212.13
         270.13         518.02
         413.17         436.47
         268.65         267.80
         400.66         373.73
         305.92         800.06
         310.70         421.41
         842.95         562.54
         250.86         802.89
         802.86         238.73
         304.39         204.27
          59.05         317.21
         251.82         375.09
        1294.29         680.31
         158.25         568.38
          75.82         396.82
         148.50         328.90
         249.61         840.41
         281.73         454.65
        1072.26         547.98
         274.16         283.79
         508.30         417.47
         437.73         656.08
         478.57         278.74
         602.66         527.60
         218.27         215.11
         132.82         407.95
         797.61         751.10
         712.13         238.08
         721.93         785.34
         518.66         201.53
        1059.63         808.05
         355.16         456.95
         894.66         363.65
         317.22         187.94
         174.69         183.98
         226.90         276.67
         153.43         200.82
         372.15         473.13
         572.72         407.04
        1416.36         569.17
        1221.47         576.53
         838.56         455.42
         151.06         618.64
         795.12         806.64
          81.28         376.14
         669.78         382.96
         428.84         527.03
          46.23         666.81
         379.04         315.37
        1279.42         518.46
         466.41         337.72
         482.81         584.20
         308.88         381.37
          66.51         391.21
         839.83         274.73
         610.03         305.23
         266.78         741.66
         180.25         372.75
         142.78         296.67
         497.77         548.39
         145.56         416.87
         144.54         721.12
         394.01         338.62
         337.20         388.05
         301.53         292.45
          80.37         503.39
         693.82         341.73
          63.63         374.48
         129.69         526.61
         769.44         629.21
         559.76         682.58
         254.62         474.83
         826.40         595.54
         274.92         450.17
         270.24         313.22
         391.01         481.00
        1995.93         397.02
         243.00         569.07
         230.38         401.20
         482.06         625.43
         614.64         322.00
          37.35         384.24
         447.97         525.80
        1457.58         299.06
        1559.17         551.59
         466.67         707.10
         506.12         495.32
         122.92         406.59
          46.99         356.47
         410.79         575.17
         414.13         182.99
         220.27         630.03
         299.38         631.93
         107.30         429.38
         321.96         797.36
         311.45         567.42
         416.87         238.86
         350.64         604.52
         331.07         678.28
         145.54         487.76
         293.97         159.93
         188.31         307.00
         679.15         175.77
         378.77         305.21
         803.61         222.92
         121.24         609.77
         318.87         275.70
         257.42         334.73
         498.14         104.96
         539.79         484.89
         130.77         401.07
         421.50         618.25
         321.35         754.01
         336.62         541.46
          57.43         467.94
        1188.13         386.71
         300.55         553.74
          28.91         577.85
        1044.88         246.92
         432.08         754.01
         961.88         644.82
         295.82         394.67
          75.45         432.90
         241.80         302.87
         471.60         343.11
         276.65         279.96
         704.43         335.28
         196.85         402.27
         433.83         190.80
         275.83         611.95
          48.70         341.39
         188.66         371.25
         144.57         492.98
          30.30         438.32
         579.05         455.92
         316.37         618.38
         300.08         323.95
         106.12         510.06
         385.50         507.69
         150.16         494.30
         289.14         788.80
         352.67         183.68
         295.94         413.11
         326.42         569.12
         157.78         768.57
          50.87         378.26
         135.75         234.97
         371.89         256.18
         601.69         630.98
         151.14         315.02
         262.25         432.39
         271.26         759.32
         113.54         418.24
         362.11         651.74
         482.55         684.75
          62.18         604.44
         353.69         372.31
         304.99         330.49
         884.60         648.94
         810.78         571.86
         162.95         479.60
         277.39         588.00
         179.26         429.40
         125.47         450.59
         149.35         340.88
         460.14         319.40
         320.59         600.67
         550.31         158.37
         625.70         605.60
         170.31         629.53
         539.91         217.54
          50.02         164.17
         360.37         356.08
          99.03         394.19
         184.19          54.84
         280.63         804.37
          61.95         528.72
         451.35         445.10
         278.73         403.92
        1105.72         745.83
         214.58         750.54
         202.53         903.66
         288.86         282.29
          38.75         170.67
         484.60         446.56
         283.37         477.84
         222.26         414.25
         655.84         447.10
         381.02         547.62
         929.81         572.22
         323.10         392.15
        1436.43         641.84
         135.20         358.86
         588.92         339.74
         168.73         684.34
         252.92         418.72
         476.08         503.43
          82.64         230.77
         178.67         385.42
         178.67         336.53
          81.19         690.46
          33.52         613.08
         180.69         554.28
         796.24         199.34
         537.93         399.15
          55.45         859.71
        1195.45         405.59
          28.51         611.07
          61.07         237.12
         339.08         377.17
         109.98         770.38
          97.98         784.45
          73.63         387.06
         435.27         815.81
         216.69         503.49
         349.92         532.55
         597.72        1231.64
          97.98         238.97
         365.12         336.89
         445.53         122.96
        2112.98         356.42
         416.32         298.59
         188.08         141.56
         200.87         706.14
         128.45         668.90
         399.84         898.54
          45.46         781.25
         325.06         615.05
        1404.30         386.84
         443.70         443.82
         305.86         142.96
         448.35         431.03
          53.30         370.06
         282.88         323.14
         751.17         408.61
          87.62         456.47
         105.33         539.93
         455.99         611.19
         941.50         484.05
         646.26         238.96
         430.15         846.79
         124.08         512.12
         374.54         570.52
         177.92         620.35
         155.49         634.31
         211.75         378.72
         178.07         226.21
        1241.81         119.09
          57.98         660.86
          68.46         585.05
         938.94         406.27
         359.25         488.23
         552.38         605.57
         398.05         638.15
         448.70         942.60
          69.94         275.74
         197.16         573.14
          47.29         524.06
         124.72         328.21
         297.60         356.14
         356.91         509.18
         187.41         549.85
         525.22         364.98
         121.05        1080.87
         472.95         533.59
          57.61         972.48
         883.08         200.53
         782.59         634.34
         316.91         537.78
         193.08         890.76
          45.42         245.19
         491.03         267.42
         124.33         534.88
         203.92         149.06
         142.67         415.31
         466.28         824.01
          40.76         486.55
         374.86         553.10
         732.70         262.86
         777.18         186.44
         234.67         121.75
         597.21         214.98
          93.23         626.12
         194.21         180.93
         397.55         275.05
          90.93         425.34
         997.16         320.23
         230.93         364.39
         110.81         395.51
         306.95         487.44
         393.80         374.19
         426.93         665.78
          57.96         492.11
         424.33         286.53
         314.20         636.86
         266.01         319.28
         226.84         142.62
          96.31         748.77
          59.97         291.51
         343.09         702.29
         143.11        1129.30
         288.00         703.75
         177.98         287.50
         287.88         545.07
         207.08         229.81
         306.04         413.65
         242.63         399.00
         133.81         510.83
         377.87         761.80
         241.82          45.74
         149.37         173.02
         605.31         865.13
          81.97         630.78
         270.85         239.87
          99.11         339.98
         568.54         225.32
         241.75         219.99
         304.36         898.99
         542.34         696.29
         459.53         749.54
           4.79         208.13
        1854.19         732.05
         567.18         738.55
         800.34         416.80
         466.14         205.18
         350.12         216.80
        1166.46         388.53
         315.64         480.89
         430.23         260.21
         238.10         415.22
         839.36         260.65
          29.53         430.53
         196.54        1001.79
          61.11         648.18
          41.25         242.68
         309.93         671.11
          23.38         235.20
         351.69         441.34
          80.72         774.77
         597.18         326.96
         724.66         465.16
         783.07         555.55
         199.02        1162.46
         262.47         422.95
        1335.53         616.85
         172.30         341.74
         326.26         223.03
         924.91         894.89
          33.11         653.53
         955.63         601.04
         224.98          87.24
         480.67         591.44
         145.35         424.63
         308.87         320.86
          49.91         266.56
         580.62         828.66
         813.70         746.01
         185.10         265.14
         569.84         513.22
         677.97         754.66
         298.47         552.07
         543.17         501.73
         170.31         377.10
         310.37         570.77
         564.02         169.27
         199.85         374.92
         244.97         350.83
         503.72         635.83
         466.12         373.37
          37.07         669.67
         570.83         854.68
         145.04         670.46
           9.09         452.73
         260.72         143.97
         834.04         326.99
         889.52         119.13
          63.78         305.52
         369.53         522.92
         638.13         774.37
         757.11         345.78
          94.86         208.22
         128.19         821.32
         256.67         704.44
         752.41         349.16
         920.89         539.63
         575.90         446.04
         393.42          74.92
         407.27         394.87
         951.32        1042.75
         313.29         454.87
         153.98         436.54
         219.91         681.38
         193.43         513.26
         187.58         425.52
         386.60         486.17
          20.89         896.96
         618.52         224.09
         520.17         334.15
         364.20         528.01
        1467.36         187.62
          39.61         355.21
         113.92         552.79
         327.48         604.77
         230.63         413.27
         258.04         395.35
         271.58         365.81
         522.49         344.30
         298.51         553.30
         267.43         489.94
         260.54         486.91
         923.76         189.35
         499.14         435.68
         544.65         211.62
         795.27         388.26
         194.10         430.61
         301.28         348.49
         162.41         318.52
         335.39         165.04
         401.59         503.30
          76.94         312.13
         698.13         167.33
         350.66         742.64
         888.69         703.94
         395.05        1009.91
         252.31         415.24
         240.02         338.19
         101.39         699.04
         117.07         444.13
         720.94         330.80
         693.34         337.56
         319.80         592.61
          58.92         593.20
         910.62         222.26
          60.64         770.17
         420.91         325.79
         275.54         183.05
          78.55        1115.06
         102.29         427.99
         184.88         270.39
         569.95         649.36
         582.83         186.91
          45.41         480.21
         238.95         609.68
          31.28         612.53
         610.62         671.94
         365.21         527.44
         268.68         222.04
          21.11         325.08
         179.74         301.53
         372.88         621.03
         143.51         499.97
         280.48         232.56
          62.70         282.99
         230.86         283.40
        1117.93         704.11
         621.82         240.42
         641.48         472.27
         347.97        1048.07
         142.52         553.81
         416.43         340.20
         298.20         708.29
        1283.70         150.93
         274.47         385.22
         854.55         290.99
         308.00         928.24
         304.36         660.13
          28.67         523.69
         296.65         790.57
         407.62         665.80
         346.81         620.55
         172.11         435.27
         270.73         711.34
         531.69         474.89
         117.37         371.18
         134.25         224.76
        1049.83         276.01
          86.65         615.12
         458.14         257.33
         684.99         537.48
         208.87         626.52
         145.66         392.78
         713.36         794.77
         321.25         361.25
         165.75         260.66
          31.16         280.84
         477.13         631.99
         370.59         420.66
         467.83         333.55
         466.43         978.84
         345.16         684.63
         737.53         337.31
          23.42         666.54
         169.80         591.59
         457.40         389.77
         432.73         533.58
         180.35         505.74
         114.04         429.39
          68.87         431.23
        1503.47         139.64
         329.42         651.23
         792.39         882.54
          91.03         486.50
         409.94         358.96
         332.02         259.43
         235.79         316.20
         448.96         174.10
         210.83         120.31
         452.18         578.83
         420.31         395.40
          64.76         417.78
         926.10         523.30
         569.32         489.26
         996.52         344.48
        1059.03         591.51
         374.80         717.22
         488.03         649.33
         343.59         235.98
         411.96         159.80
         545.22         482.98
         854.60         164.94
         724.37         244.95
         630.60         826.86
          93.60         509.68
         653.22         353.95
         223.84         372.79
         799.97         652.56
         157.44         556.87
          84.67         347.43
         257.80         292.07
          19.94         638.05
         258.65         446.75
         448.48         610.20
         502.41         724.77
        1009.01         291.41
          94.90         596.95
         206.48         871.82
         107.05         745.00
           1.80         266.27
         390.72         509.62
         595.43         327.32
         932.32         557.08
         191.36         476.78
         168.72         835.93
         424.39         179.72
          31.33         161.24
         446.99          67.41
          45.37         480.93
         239.66         260.01
         371.97         442.70
         327.16         340.42
         119.19         136.55
         160.28         502.45
         351.79         272.36
         216.44         479.38
         776.78         263.68
         274.05         816.52
        1310.62         781.54
         295.93         507.06
         310.39         630.63
         215.77         343.16
          84.67         264.95
         524.00         636.78
         412.25         479.70
          45.88         312.54
         334.60         492.56
         369.13         285.78
         105.40         545.55
         434.41         999.37
         611.54         498.36
         402.34         136.18
          50.92        1142.43
         192.26         580.70
         202.90         688.51
          41.71         689.25
         106.63         545.72
        1439.23         610.50
         129.69         866.67
           6.64         412.53
         409.59         680.97
         143.63         362.70
         127.45         242.11
           9.15        1067.89
          78.98         574.28
          72.91         614.24
         266.64         735.85
         870.93         516.99
         148.49         424.80
         293.03         406.17
         881.63         382.20
         191.93         282.75
          91.49         199.24
         382.61         387.82
         225.52         296.70
         263.28         541.10
         120.69         342.13
         116.43         347.69
          55.52         264.57
         476.26         423.22
         348.01         470.23
         480.02         291.89
         278.23         273.19
         167.84         382.91
         110.11        1059.34
         811.30         802.31
          34.47         418.98
         291.29         553.65
          32.43         338.91
         602.92         519.55
         416.53         505.86
         592.66         376.43
         589.95         204.47
         430.29         781.87
         540.44         341.06
         209.98         731.56
         544.54         740.74
        1547.30         125.10
         103.22         299.01
         385.84         261.74
         301.39         512.27
         124.55         673.86
          76.03         469.75
         383.76         524.17
          87.40         746.02
         630.02         679.69
         282.53         277.79
         161.43         364.61
          60.03         839.53
         359.60         472.46
        1475.80         607.16
        1385.65         549.98
          59.33         512.52
          68.29         160.41
         440.47         422.80
         522.31         340.30
         683.73         497.26
        1411.95         390.34
         286.65         336.87
         262.39         818.35
          12.06         319.98
         484.29         628.75
        1015.10         498.23
         353.66         342.92
         501.56         535.21
         893.98         869.03
         123.01         593.50
         137.68         375.38
          49.47         684.88
         250.60         250.93
         235.58         417.83
         150.11         631.44
         448.75         178.97
         288.57         469.15
          11.18         428.45
         217.71         288.89
         248.90         490.11
         300.13         520.88
          60.37         760.26
         850.36         895.21
         310.54         392.74
         112.08         296.99
         581.32         417.54
        1097.04         469.53
         138.98         685.88
         362.58         368.90
          34.96         620.43
         698.54         355.07
         120.26         488.57
        1102.86         875.91
         275.97         288.66
         979.87         230.90
          75.89        1096.55
         217.07         238.12
         187.84         316.65
         170.98         199.99
         191.07         249.57
         545.86         374.40
         524.41         294.83
          90.16         199.08
         405.68         380.12
         492.61         688.15
         449.70         535.02
         244.75         270.85
          57.46         536.39
         783.26         168.04
          81.99         797.81
         821.67         788.13
          88.45         310.64
         119.49         463.54
         655.36         901.84
         532.99         367.07
         409.15         453.37
         298.72         434.20
          77.46         103.80
         572.22         466.03
         143.08        1048.29
         450.07         538.52
         238.59         106.35
         592.06         735.41
         573.77         368.57
         126.49         453.23
         139.61         343.47
         180.36         570.07
         181.35         332.50
          84.47         445.36
         349.27         469.26
         613.80        1003.23
         424.28         317.09
         151.18         350.63
          23.20         561.37
         169.76         438.22
         457.84         523.95
         129.50         573.69
        1177.94         718.80
         386.29         454.72
         551.29         214.92
         416.56         382.57
         113.72         540.62
         860.09         207.59
         131.93         472.63
         653.25         669.94
         216.62         383.63
         797.45         801.65
         472.23         618.52
         247.80         591.43
         304.15         990.30
         353.24         414.64
          77.77         664.21
         506.29         319.77
         110.89         336.00
          84.78         509.24
          93.30         251.31
         235.33         477.52
         730.79         499.42
         529.09         731.17
          64.06         701.58
         149.64         441.47
         518.82         396.01
         215.86         436.34
         506.64         631.17
         326.59         452.59
         257.01         353.75
        1014.31         405.51
         179.31         348.61
         672.03         355.75
         784.79         460.34
          46.43         590.43
         311.39         566.78
         255.15         148.33
         512.12         669.44
         936.11         501.03
         977.00         662.07
         172.28         368.38
          66.33         625.89
         535.83         499.06
         111.41         485.32
         138.01          77.18
         150.01        1094.92
          57.87         464.70
         160.81         944.52
         397.27         535.61
         913.87         361.46
         256.29         351.37
         436.48         288.07
         139.28         650.40
         122.56         595.12
          15.19         327.62
         240.47         544.80
         677.20        1119.88
         329.67         723.60
          49.20         566.12
         624.98         666.12
         431.49         310.55
         207.10         843.96
         340.93         268.08
         312.26         530.25
         413.06         743.02
          71.12         452.49
         151.40         614.98
        1149.31         414.19
         445.76         363.73
         291.27        1095.05
         406.65         272.43
         105.40         305.50
        1090.33         355.82
         351.66         639.09
         171.22         196.74
        1130.08         670.89
         547.29         553.66
         332.50         891.72
          75.30         305.46
         291.03         428.42
         152.55         343.71
          74.64         464.10
         726.56         817.05
         247.39         544.87
         444.43         808.16
          89.81         253.19
         277.63         765.07
         187.22         501.08
         618.87         716.94
          26.06         282.43
         613.37         690.06
         221.75         218.38
         197.31         706.86
         151.36         306.63
         677.61         590.51
         894.00         878.45
         447.05         572.22
         855.50         567.49
         527.73         422.83
          45.94         284.93
         296.54         612.45
         632.26         611.13
         183.81         199.03
         121.55         772.82
         120.50         210.40
         397.11         530.78
         826.27         353.11
         344.10         664.33
         273.88         723.13
         125.23         369.86
         463.28         497.52
         107.83         331.42
         205.94         658.14
         102.91         618.59
         629.37         549.26
         128.88         758.55
         193.21         630.06
         808.14         298.28
         601.29         398.03
         399.53         423.22
         713.70         151.30
         376.83         293.97
         319.97         397.20
         144.59         555.29
         299.99         412.54
         982.23         333.67
         226.88         218.79
         655.62         630.50
         726.68         574.99
         571.62         382.66
         127.67         665.32
         194.80         541.56
         399.67         592.37
         597.24         441.32
         589.11         422.28
         493.95         486.81
          18.25         495.12
         138.10         968.68
         506.29         831.13
         131.71         286.68
         375.11         428.57
          53.51         376.37
         188.63         230.43
         162.55         459.56
         105.07         574.04
          88.49         312.73
         555.98         489.59
         705.11         676.19
         617.61         463.19
         825.36         798.43
          46.37         463.56
         586.47         172.72
         159.18         425.45
          95.27         653.25
         702.58         899.66
         378.11         374.72
         279.54         584.00
         444.71         966.29
         128.30         375.17
         449.89         435.65
        1007.70         404.52
         525.75         150.77
         123.43         520.20
         487.54         727.74
         511.72         338.13
         645.94         591.21
         711.53         545.44
         170.72         854.67
         144.70         190.82
         221.83         423.86
          15.81         445.37
        1400.44         333.22
         316.54         627.23
         739.65         793.70
          76.50         360.49
         414.11          90.41
         306.34         590.69
         309.78         407.80
           3.09          82.40
        1185.10         561.12
         145.53         506.19
         729.05         352.79
          56.16         352.53
         602.05         371.32
         118.92         986.85
         164.17         868.77
          85.58         324.87
          86.74         448.56
         353.71         307.20
          77.11         516.62
         543.36         605.65
         434.84         190.03
         152.08         481.34
         821.06         443.84
         141.24         648.79
          31.56         522.46
         641.90         853.19
         356.28         302.87
         410.15         858.87
         968.55         262.87
         773.33         553.42
         242.09         376.22
         806.21         480.79
         535.64         312.18
         119.69         589.56
         276.72         137.77
         167.65         488.10
         754.71         372.03
         109.12         944.65
         608.98         445.23
         174.65         925.68
         607.20         515.63
         255.06         661.66
         182.41         417.42
         683.73         396.01
         253.63         428.80
         580.96         742.60
         931.05         911.75
        1668.87         330.49
         806.61         639.05
         447.74         753.92
         560.28         619.08
           3.60         834.31
         327.96         971.99
         171.07         760.37
         756.80         488.97
          12.31         572.44
        1908.61         652.15
         594.38         213.29
         444.23         420.01
         801.27         360.98
          52.73         465.68
         276.74         494.92
         326.23         642.72
         307.55         923.43
         236.72         563.54
         164.82         479.94
         253.07         340.84
         140.97         505.78
         751.85         657.38
         506.16         359.97
         149.03         431.10
        1355.78         346.46
         321.31         508.53
         305.81         553.40
         211.31         162.76
         255.27         568.24
         183.10         381.42
         135.87         865.46
         521.44         742.75
         134.63         691.41
         221.18         570.85
         246.43         102.53
          92.34         357.98
          50.04         218.55
         340.55         451.95
          83.76        1043.10
         190.84         382.31
         218.58         267.81
          68.54         263.06
         296.85         405.39
         348.93         208.55
         164.61         473.17
         414.14         449.96
         297.21         531.92
         248.50         713.79
        1010.88         118.33
         497.40         389.75
         327.51         355.39
          68.37         532.47
         538.85         687.35
         168.82         354.60
         170.43         567.44
         483.05         177.45
         692.85         112.39
         124.56         391.87
         166.71         319.30
         563.14         399.60
         678.68         402.08
         528.44         785.27
          34.16         718.07
        1103.60         260.30
          39.53         266.49
         341.81         282.60
         331.65         496.34
         552.55         572.13
         279.39         329.63
          48.72         398.28
         462.02         478.23
         112.65         835.99
         192.10         741.83
         776.39         202.48
         127.00         692.41
          96.93         561.37
         491.57         612.20
         614.84         572.16
        1042.02         630.09
         667.75         202.32
         156.82         640.20
         234.38         681.90
         370.79         510.34
          10.07         570.53
         192.54         237.58
          76.70         484.42
          71.88         605.87
         601.87         868.70
         325.42         388.42
         473.11         916.14
         161.56         227.17
         191.15         185.98
         244.90         420.36
         475.67         165.89
         142.66         293.04
           5.96         230.34
         312.67         378.86
          75.95         192.53
         372.69         464.76
        1644.10         111.01
         325.48         473.61
         381.82         629.42
         682.85         386.94
         306.98         918.47
          34.91         758.17
         170.82         762.16
         233.06         640.23
         247.37         382.52
         926.80         172.45
        1123.40         397.19
         544.22         572.52
         151.25         466.78
         463.67         579.25
          77.47         418.55
          29.87         330.92
         473.05         561.28
         313.38         580.92
         155.77         284.21
         527.27         740.61
         260.49         600.91
         520.46         404.41
         658.49         297.76
         500.66         582.79
         253.98         907.51
         316.76         247.17
         304.69         572.96
         123.69         903.21
         976.50         364.59
         787.32         252.60
          36.43         539.78
        1646.82         891.06
          62.41         784.89
          50.96         519.09
         267.83         671.13
         152.54         697.20
         615.93         687.35
         171.84         270.57
         186.62         502.70
         818.95         230.83
         406.50         254.55
         275.67         506.07
         168.91         541.28
         862.37         393.76
         404.70        1030.25
         313.23         721.23
         553.42         228.26
         236.21         678.06
         345.22         365.77
         369.35         490.07
         198.74         366.69
         371.31         504.00
         157.22         385.50
         184.73         313.67
         374.03         449.39
         320.79         431.04
         216.64         380.61
         343.85         322.72
         444.95         528.46
         164.76         633.35
          31.30         492.52
         514.83         294.76
         134.25         342.75
          55.05         311.16
         464.50         825.33
         145.82         262.07
         198.48         775.52
         221.08         912.31
         389.58         526.85
         493.12         453.36
         805.78         370.09
         372.83         359.44
         102.12         591.11
         181.71         667.52
         107.73         243.02
         655.23         756.92
         290.91         573.02
         467.27         538.36
         105.53         223.36
          71.82         502.90
         402.83         507.01
         126.27         312.17
          49.35         890.04
         275.28         297.12
          92.57         387.17
         322.06         449.18
         201.84         537.19
         275.02         473.30
         507.86         213.92
         221.38         631.70
         962.84         295.40
         310.03         254.56
        1352.48         440.20
         463.11         567.57
          41.80         309.18
         407.83         269.22
          99.88         295.97
          29.53         758.99
         185.43         490.43
         129.87         693.14
         532.52         549.34
        1458.47         687.18
         477.19         873.60
         473.36         403.61
         256.98         268.87
          83.49         426.24
         266.06         456.02
         679.17         698.18
         535.01         195.69
         343.47         420.90
         954.45         907.46
         254.96         189.66
          14.35         574.41
         111.15         515.00
          40.97         386.65
          36.85         392.48
         255.68         356.24
         115.28         538.53
         330.64         324.81
         190.34         983.96
         559.34         245.53
         310.65         316.98
         104.31         461.46
         155.49         440.11
          62.30         469.44
          91.51         775.23
        1224.39         587.76
         184.68         258.31
          43.49         526.95
         270.68         564.06
         505.44         638.38
         485.79         396.00
         222.86         935.40
         622.84         323.79
         980.77         205.66
         261.85         244.69
         253.70         209.55
         593.47         331.86
         225.70         608.85
          41.54         490.30
         159.45         566.48
        1598.87         236.55
         266.69         637.66
         639.29         617.71
         312.94         380.18
         396.95         813.63
         406.21         647.18
         224.54         421.64
         185.73         470.12
         256.85         585.61
         794.71         318.90
         141.95         623.91
         332.13         302.20
         576.69         173.32
         606.32         201.78
         183.05         567.48
         114.00         255.89
         179.45         605.82
        1171.01         910.81
         287.67         293.39
        1360.98         418.06
         507.68         253.39
         218.05         491.69
         389.42         409.72
          42.02         328.05
         448.57         755.79
        1285.71         525.72
         214.29         675.49
         656.49         957.99
         543.68         261.32
         890.18         276.42
          96.53         196.67
          43.02         251.26
         300.34         366.71
         932.13         293.08
        1180.15         270.12
         361.96         670.81
         187.07         725.76
          53.21         524.14
         608.08         397.69
         272.94         489.96
           1.25         476.92
         781.73         401.22
         170.49         584.64
         228.11         503.30
         390.70         756.96
         237.60         255.85
         377.11         287.36
         270.38         818.81
          39.43        1040.63
         367.93         325.73
        1049.50         262.12
         259.68         367.51
         255.02         360.54
        1000.53         487.78
         645.91         436.78
         334.25         561.59
         343.46         462.34
          47.70         328.59
         623.18         755.42
         627.53         647.65
         182.29         169.62
          83.72         957.78
           1.96         672.19
         769.57         656.66
         230.18         290.19
         292.13         271.99
          54.18         530.79
         125.82         581.12
         196.42         424.97
         168.55         671.41
         284.20         456.89
         201.40         358.16
         366.95         179.40
         708.91         516.26
          73.43         390.17
         124.47         229.98
         305.62         392.44
         974.53         356.13
         177.87         451.96
         343.52         423.99
         123.47         442.96
         535.76         215.19
         296.94         240.52
         695.78         535.27
         161.54         212.13
         559.98         452.64
         348.07         337.06
         434.70         563.47
         113.23         292.29
         357.16         825.98
          63.41         333.90
         103.31         157.49
         399.06         496.56
         806.64         183.45
         232.40         227.01
         538.88         245.19
         187.38         141.47
         560.79         547.85
         160.52         469.68
         389.35         174.34
         666.45         534.74
           6.67         730.64
         734.27         566.87
         191.80         349.98
         271.38         656.88
        1025.32         801.31
          78.78         736.93
         410.81         383.77
         179.27         364.43
          41.07         389.19
         268.58         664.00
          82.28         692.83
         503.43         538.24
         320.42         325.90
          15.03         478.69
         333.02         612.72
         655.77         159.80
         191.80         704.92
         387.73         284.71
         711.81         318.74
         425.00         208.12
         184.87         329.95
          86.46         834.82
         884.97         437.31
         177.78         385.80
         221.57         344.67
         908.48         230.06
         445.53         430.41
         353.73         388.53
         574.38         390.19
         585.62         342.23
         160.43         197.48
         663.43         496.93
         883.76         560.41
         246.26         416.14
         496.20         924.90
          27.57         215.11
          71.84         325.14
        1096.10         846.79
         913.92         232.51
         464.98         330.72
         432.03         446.53
         361.39         816.05
         788.58         644.67
         381.33         524.36
         158.89         359.74
         532.18         371.79
         129.34         821.94
         774.88         667.59
         257.76         393.81
          61.56         394.97
         366.36         305.56
          91.55         624.81
         583.66         431.45
         165.26         672.23
          70.56         227.42
         315.85         324.63
         469.47         348.25
         679.37         592.69
         219.95         973.57
          83.45         819.82
         659.97         535.40
         305.93         236.34
         458.14         437.72
         146.12         673.65
          33.45         386.80
        1142.70         457.57
         583.16         153.36
          93.58         779.14
         564.06         711.28
         603.75         710.38
         290.14         558.00
         256.10         566.63
         656.73         371.50
         402.94         495.34
          82.35         327.30
         457.84         641.39
         976.44         699.62
          53.46         569.72
         112.37         837.63
         886.12         592.66
         290.20        1320.00
         136.77         930.22
         376.76         354.28
         207.59         272.53
         406.02         816.33
         468.42         325.30
         218.25         183.37
         472.48         579.15
         323.76         479.94
          83.11         556.94
         396.01         280.50
          78.15         477.76
         168.73         469.49
         459.66         288.07
         131.83         517.24
         274.90         898.34
         247.63         265.19
         320.39         391.90
         346.00         836.92
         298.92         439.13
         104.11         700.46
         703.74         446.30
         254.29         354.23
         510.11         105.61
         128.46         224.16
         166.70         377.45
         183.90         314.84
         184.35         790.12
         116.74         405.93
          29.81         605.91
         237.55         390.39
         107.26         387.88
         370.17         316.50
         595.42         375.58
         303.17         579.65
         158.10         517.75
         811.85         353.65
         354.05         591.99
         587.36         489.20
         104.13         484.25
        1121.97         343.43
         639.85         725.85
         425.44         492.26
         509.62         794.62
         233.57         331.40
         163.91         631.07
          97.44         778.14
         628.10         467.02
         268.06         735.04
         911.57         539.25
         189.38         748.98
         260.62         724.66
         740.30         565.64
        1567.16         505.47
         384.21         457.69
         401.42         145.57
         711.42         383.66
         505.42         364.84
         166.82         170.28
          94.68         400.67
          65.26         546.16
         179.24         588.83
         280.76         300.60
         230.22         899.47
         158.89         279.63
          53.74         185.86
         599.41         671.00
         432.50         540.22
         356.78         398.12
          63.98         665.26
         337.48         331.84
         683.49         848.94
         413.30         506.92
         251.15         226.19
         117.31         476.18
         244.50         786.38
         588.72         741.45
         189.42         565.16
          29.74         577.98
         471.91         302.98
         159.74         332.77
         678.45         406.88
           7.43         554.83
         771.47        1020.93
          14.44         229.44
          61.63         941.04
         128.80         503.72
         484.30         285.18
         385.54         295.14
         111.49         704.15
         304.32         554.65
         991.93         375.32
         481.14         446.40
          19.78         410.55
          57.91         504.27
          42.35         574.87
         437.61         571.51
          77.27         659.11
         566.90         632.34
         660.19         654.12
         102.92         402.92
         178.94         669.38
         253.32         221.67
          91.72         573.73
         690.28         368.22
         323.33         567.89
         162.25         847.31
         494.11         978.46
          41.33         932.94
         525.71         446.32
         327.49         292.48
         369.46         160.82
         819.60         567.75
          22.43         296.95
          24.62         327.15
         916.64         401.64
         773.44         567.66
          47.52         555.66
          36.62         365.04
         148.16         628.30
        1828.87        1137.14
           8.73         204.61
         301.43         309.60
         639.86         684.01
         686.56         452.64
         695.61        1015.41
         362.57         626.85
          30.46         720.67
          97.08         280.73
          57.44         657.39
         252.63         376.22
         500.63         639.85
          84.96         295.64
         219.32         295.28
          94.89         242.36
         574.34         626.93
         370.63         890.56
          28.53         257.58
         112.82         485.52
         444.81         481.85
         726.57         509.34
         453.85         215.10
          13.48         890.00
          16.72         373.44
         359.14         536.36
        1703.28         176.41
         307.93         146.04
         119.63         671.11
         345.56         515.21
         188.44         710.64
         485.94         804.76
          79.07         168.63
         254.55         803.68
        1307.18         306.59
         960.62         439.22
         742.98         165.27
         186.27         483.37
         230.45         592.44
         229.08         489.37
         251.26         579.20
         417.76         200.23
         164.41         227.81
         515.99         712.75
         418.64         432.37
         199.55         776.61
         138.91         619.04
         202.94        1023.59
         969.59         303.66
          98.76         729.24
         588.51         636.49
         593.38         376.65
         716.04         309.38
         389.67         341.04
         212.31         154.17
         703.69         463.79
         214.96         701.97
          43.39         468.78
         414.99         820.89
         571.92         444.24
         153.51         692.09
         500.36         540.27
         921.08         570.46
         187.76         634.24
         608.91         903.03
         158.36         493.95
         193.79         367.85
         216.50         258.76
         702.98         161.05
         216.35         739.19
         103.76         590.08
          34.76         397.32
         190.25         140.47
         121.80         246.29
         180.52         474.94
         142.52         251.33
         320.42         128.49
         319.72         444.76
          75.17         674.94
         639.47         498.25
         471.42         929.85
         118.49         476.21
         354.30        1028.68
         339.12         715.12
         723.41         506.99
         274.88         402.80
         571.04         176.99
         742.93         469.38
         254.76         278.30
         124.32         198.54
          10.64         704.95
         121.73         224.69
         196.38         240.81
         245.19         647.78
        1475.47         477.36
         855.63         599.93
         648.24         378.82
         111.27         205.77
         194.06         422.82
         157.53         435.15
         724.46         279.66
         643.39         473.12
         525.21         120.69
         382.45         323.83
          83.61         457.15
          79.92         712.04
         530.98         413.75
         364.21         624.59
        2200.88         632.56
         321.93         401.05
         672.15         764.07
          88.27         699.49
         583.38         461.24
         806.01         453.38
         376.43         634.60
         239.64         416.36
         195.54         212.85
         362.19         245.83
         697.39        1090.80
        1047.03         420.61
         301.49         531.04
          30.51         627.82
         199.92         793.10
         109.24         416.78
         117.88         236.23
         989.84         414.43
         143.22         668.28
         108.06         494.70
         396.40         300.21
         969.09         490.12
         230.55         428.33
         226.08         715.91
         108.25         537.67
         136.34         358.19
         218.99         264.66
        1384.90         174.71
          37.22         402.22
         343.94         639.86
         505.12         217.02
         765.03         397.22
         243.89         331.41
         316.14         262.54
         369.06         672.87
         779.78         488.27
         250.53         520.12
         180.08         594.43
         229.11         344.45
         237.08         314.00
         214.04         325.31
         198.23         723.08
         535.78         397.19
         417.12         695.19
         111.80         210.76
         547.53         724.12
         216.67         304.66
         581.25         405.61
         387.36         601.93
        1468.92         692.66
         102.90         120.76
         515.33         500.17
          68.62         567.97
         535.18         321.51
         417.03         455.45
         493.07         159.24
        1358.47         329.40
         722.02         409.37
         411.26         419.70
         362.11         335.26
         184.34         252.51
         228.47         259.33
         433.47         445.38
         283.72         582.00
         659.88         499.53
         200.91         584.91
         201.04         289.64
         452.11         267.49
         242.94         106.42
         154.35         651.80
         146.94         676.94
         540.22         327.06
          95.63         318.61
         231.58         823.96
         310.66         380.85
         328.94         494.48
         192.46         716.38
         168.90         392.93
         432.00         300.48
         532.82         681.44
          33.29         235.35
         258.70         662.61
         179.06         250.88
         182.61         546.37
         209.82         708.09
         192.09         878.67
         880.45         407.36
         232.99         352.28
         175.52         466.55
         127.64         310.36
         238.71         241.14
         661.56         222.15
          51.18         572.82
         368.28         260.97
         320.59         402.24
          75.36         111.26
         199.52         610.76
         376.31         329.15
         334.32         302.83
         302.41         394.06
         830.77         456.41
         301.87         363.59
         892.47         219.65
         996.68         528.38
         369.80         481.15
         187.41         748.67
         107.10         658.16
          23.82         305.45
         287.82         472.30
          65.98         184.56
         220.74         745.44
          94.45         335.45
         591.67         367.00
         396.76         497.27
         201.82         246.18
         647.52         306.30
         808.01         321.72
         476.61         129.08
          62.33         653.29
         185.91         624.52
         105.39         467.69
         342.83         628.55
         327.83         759.19
         386.67         608.62
         785.63         306.37
         413.47         468.02
         260.28         180.02
         182.98         216.05
         283.66         352.14
         676.49         355.35
         375.97         253.79
         939.57         371.91
         123.63        1153.55
         188.27         811.87
          51.57         683.72
         191.72         357.29
         646.81         507.16
         168.44         543.51
         142.52         639.74
          84.08         770.17
         339.84         439.19
        1085.58         370.64
         361.31         408.48
         429.85         283.22
          88.96         425.57
         287.57         434.62
         287.17         567.09
         251.39         253.35
          47.36         319.67
         569.20         404.16
         402.18         388.49
         217.68         765.59
         111.05         142.43
         203.81         384.24
          59.25         663.37
         471.95         484.52
         325.02         404.36
         128.09         297.17
         769.93         268.82
         241.04         725.40
         328.41         512.37
         289.07         669.86
         443.77         495.16
         293.74         560.13
         363.12         381.30
         284.26         573.45
         188.87         447.15
         534.64         955.57
        1094.85         328.13
         388.66         676.80
         114.66         376.08
         626.55         392.32
         398.72         308.28
         387.12         267.57
         727.61         548.99
         393.91         324.00
         409.05         123.75
         536.57         116.66
         403.77         638.14
         134.13         294.19
         399.07         398.36
         409.89         399.38
         448.94         596.55
        1124.28         306.53
         168.43         449.17
          63.35         253.68
          90.36         337.67
         465.17         808.47
         922.93         747.60
         282.31         331.90
         608.49         878.14
         550.88         633.63
         333.32        1099.03
         428.84          86.10
         349.59         558.71
         858.52         368.90
         246.19         778.36
         356.41         803.90
         359.44         466.49
         380.16         738.81
         324.07         529.59
         323.72         531.84
          71.25         468.63
          69.95         569.29
         424.57         437.49
         485.62         790.46
         185.24         556.02
         348.52         434.69
         102.51         395.23
         280.96         386.95
         212.21         166.53
          65.43         620.19
          51.16         811.58
         177.23         356.36
         275.19         282.11
         493.82         521.64
         431.55         876.08
         623.52         623.63
         560.13         227.67
         663.13         546.94
         355.75         326.48
         748.10         391.54
         337.78         302.22
         166.03         252.81
         206.14         495.93
         812.27         614.10
         675.89         303.15
         331.96         279.04
        1080.74         547.71
         299.38         373.37
         994.91         163.75
         246.24         242.27
         886.75         307.53
         282.02         452.52
         991.59         613.67
         269.35         728.42
         370.39         411.11
         387.08         481.11
         160.59         820.63
          71.51         174.72
          93.29         540.06
         337.28         166.69
          39.33         244.84
         657.20         545.09
          74.92         462.54
         320.45         406.16
         177.14         327.98
         288.80        1117.63
         361.15         387.18
         413.74         709.33
         358.93         564.75
        1052.50         773.97
         121.49         394.51
         148.64         529.10
          38.74         409.58
         284.63         507.04
         161.64         644.53
         351.45         334.96
         218.92         250.32
         330.90         609.49
         271.21         624.02
         712.55         322.00
         157.04         728.19
        1003.53         452.66
         738.66         200.37
         273.78         516.11
         159.08         984.91
         213.93         568.01
         516.45         745.14
         386.94         522.51
         313.74         465.78
          91.97         259.01
         763.75         306.41
         344.78         128.85
         124.17         629.09
         131.74         555.08
         169.94         320.11
          75.26         273.30
         401.21         362.49
         538.76         173.06
         258.34         452.24
         844.65         491.39
         173.56         447.00
         263.84         396.42
         304.24         668.54
         240.39         582.27
         172.64         418.92
         238.36         717.03
         131.30         456.38
        1047.85         523.49
         530.59         373.02
         206.10         544.63
         160.66         192.58
         307.88         606.21
          78.39         705.98
         862.97         456.35
         148.76         433.33
         150.18         440.94
         836.79         756.56
         466.74         538.95
         197.68         678.23
         750.34         388.45
         243.03         697.53
         265.93         613.78
         837.38         630.54
         294.77         816.91
         330.10         184.19
         658.69         640.59
         317.86         532.92
         225.02         622.89
          75.55         218.01
         275.78         382.17
         358.47         388.77
         455.57         250.35
         430.88         488.92
         534.26         596.86
          70.92         464.73
          91.88         777.73
         660.59         499.52
          14.15         291.31
          27.05         558.11
         417.88         585.77
         341.99         670.04
         952.54         711.97
        1566.41         377.52
         269.50         554.46
         629.35         614.55
          44.72         511.01
         255.99         815.31
         366.35         621.35
         525.00         626.60
         371.63         675.93
          91.29         684.43
          75.52         289.44
          91.57         193.54
         105.56         176.04
         266.02         456.51
         148.43         584.89
          44.03         658.74
         395.13         329.60
        1137.90         499.02
          20.97         967.71
         414.32         410.32
         276.25         332.27
         500.76         624.01
          53.97         673.50
         352.70         769.62
          41.25         374.49
         443.54         506.19
         415.94         442.19
        1017.15         345.61
         155.63         508.72
         615.78         440.01
         222.30         805.35
          91.00         122.93
         984.48         426.30
        1725.27         577.35
         710.42         547.01
         203.32         336.66
         123.12         489.07
         804.37         733.40
         214.82         456.06
         132.66          72.87
         354.25         335.85
          74.25         501.71
        1239.63         848.19
         496.47         625.74
         132.64         487.21
         115.94         283.84
         706.61         249.91
         972.51         402.84
         190.52         308.53
         862.96         495.98
         314.42         365.70
         610.50         273.07
         232.55         587.90
         527.29         690.08
        1105.07         534.34
         409.71         296.26
          97.35         658.07
        1027.34         912.13
        1110.18         401.20
         577.64         252.10
         683.43         426.95
         658.30         275.09
         119.92         143.74
         631.84         428.41
         532.03         318.52
         957.27        1014.41
         738.55         632.79
         942.35         270.96
         481.10         661.14
         540.60         359.95
         253.64        1184.77
         544.38         636.14
         923.88         596.27
         147.67         156.02
         340.64         245.23
         247.57         467.91
          75.48         282.80
          50.39         189.74
          99.85         506.90
         149.70         524.95
         138.81         589.45
         333.85         555.77
         412.59         262.05
          16.85         333.01
         220.18         367.41
         656.12         596.30
         872.89         541.92
         234.65         329.12
         334.77         503.66
         309.45         593.50
          41.24         372.03
         223.27         257.86
          90.16         745.85
         503.42         386.00
         645.77         384.96
         148.26         876.89
         149.77         340.19
          55.12         448.28
         220.78         612.53
         134.23         257.15
         430.17         221.86
         229.59         189.68
         464.50         262.60
         345.73         603.26
         131.28         369.44
         499.46         423.50
          48.52         309.96
         104.93         532.38
         169.02         678.29
        1019.57         454.70
         223.76         217.82
          84.43         609.44
         829.69         617.48
         436.98         584.35
         266.21         462.89
         398.00         535.45
         455.08         867.16
          70.20         945.58
         478.11         267.66
          35.54         506.36
         398.64         346.64
         556.51         308.67
          34.11         690.41
         974.49         494.75
         494.53         577.48
         497.81         747.05
         591.60         733.47
         683.55         697.10
         270.22         466.60
         251.87         581.05
         329.53         596.24
          71.89         817.68
          98.67         699.01
          73.07         641.77
         433.71         706.21
         199.34         562.52
          62.46         166.04
         710.21         823.16
         452.64         822.62
         834.36         229.02
         549.50         467.01
         624.21         633.41
          73.82         197.79
         125.98         416.60
          90.40         507.79
         200.27         268.46
          33.25         384.57
          96.07         249.74
         690.89         150.67
          67.35         790.26
         103.20         698.62
         314.28         501.83
         230.58         346.25
         162.45         358.22
         184.66         610.11
         652.68         690.96
         512.20         452.44
         272.12         867.93
         271.98         306.43
         458.89         684.20
         135.59         670.56
        1634.93         357.78
         770.78         401.60
         682.61         341.18
         652.20         339.61
          78.88         284.35
          53.07         473.39
         194.49         530.05
         600.59         454.96
         170.09         531.39
         787.73         453.17
          65.66         367.40
         463.23         371.16
         730.39         291.44
         205.12         681.83
          22.63         290.97
          75.79         291.56
          32.47         409.25
         409.59         361.27
         214.31         429.22
         672.65         185.89
         560.93         504.66
         400.01         513.15
         551.85         275.75
         349.51         374.82
         279.73         603.00
         151.37         541.56
         303.53         528.47
         160.14        1250.49
          78.26         373.18
         303.63         596.39
         195.25         273.30
         590.27         178.01
         616.66         624.36
         288.89         960.01
         790.12         548.85
         198.33         347.68
        1027.10         353.53
          54.37         199.45
         166.74         358.82
         803.45         597.52
         441.61         443.79
         337.59         652.68
          39.18         433.85
         450.26         510.20
         741.16         622.43
         351.69         285.35
         462.54         625.46
         931.83         637.34
         473.61         122.26
         203.33         359.05
         462.69         998.16
         204.01         285.59
         240.31         678.56
         145.92         328.92
          34.44         435.46
         434.26         646.92
         168.67         264.92
         784.72         459.80
         437.58         250.77
         411.95         865.29
         785.49         416.64
         901.24         334.57
          74.22         429.92
         254.70         829.28
         291.79         344.81
         398.17         263.02
         101.04         635.97
         280.03         123.82
         387.99         594.20
         569.88         999.52
         363.18         467.46
        1066.53         507.26
         265.53         363.10
         260.77         531.07
         557.07         543.66
         512.43         727.90
         196.59         436.47
           4.29         275.93
         214.27         344.49
         694.23         674.26
         200.73         350.67
         391.09         409.55
          26.65         366.73
         443.80         437.18
         518.70         510.58
         229.87         432.87
          68.87         684.47
          78.03         884.38
         220.56         814.36
         347.32         156.42
          64.01         392.46
         533.82         349.71
        1003.24         534.72
         723.20         341.86
         382.37         290.52
        1120.62         656.88
         206.25         522.79
         398.43         352.03
         234.08         367.96
         189.41         466.92
          96.70        1017.07
         521.21         307.20
         350.36         375.74
          22.77         489.80
          16.81         424.52
         216.51         447.32
         678.08         329.50
         140.85         371.34
         864.30         536.85
         116.03         351.07
         492.96          81.99
         172.62         439.05
         480.54         471.48
         773.58         506.65
          42.08         772.83
          70.76         356.05
          25.04         133.26
         140.36         527.18
         354.34         168.79
          90.94         697.25
         302.46         215.23
         371.86         674.36
         666.63         459.72
         307.42         298.82
         743.72         587.65
         279.66         424.34
         244.06         161.56
         495.88         335.97
         156.62         414.71
          53.24         570.88
         464.26         324.17
         466.26         166.66
         442.07         555.54
         668.92         546.56
         519.38         942.93
         327.27         823.44
         169.98        1061.76
        1202.42         309.09
         161.49         854.96
         273.53         376.44
          69.18         786.55
         727.21         332.68
         107.32         514.51
         100.25         215.98
         378.89         343.75
         486.68         784.87
          58.77         148.82
         198.11         251.98
         584.80         398.37
         349.30         469.66
        1064.59         636.37
         111.37        1078.52
         549.40         225.53
         396.51         446.00
         349.76         521.91
         113.30         502.67
         384.08         604.28
         167.97         520.45
         351.03         408.25
         584.20         515.14
         907.51         159.63
         379.45         345.49
          43.06         126.28
         403.63         416.47
        1133.23         125.49
         167.98         143.76
         378.41         656.08
         284.95         491.67
         590.14         600.12
        2798.24         290.76
         242.23         534.34
         521.14         473.55
        1061.35         495.06
         270.31         403.91
          69.71         229.71
         294.11         490.05
          69.28         623.07
         182.45          54.06
          97.67         454.38
         285.93         482.46
         386.63         941.78
         155.86         232.34
         766.26         410.63
         173.94         282.83
          81.72         414.69
        1027.01         402.36
         565.13         949.69
         638.47        1299.04
         454.06         490.77
         920.34         688.88
         127.41         228.73
         729.10         581.41
         596.98         408.66
          64.22         220.92
          39.53         288.98
         166.50         413.32
         207.11         744.38
         199.79         574.45
         613.78         378.55
         224.79         900.03
          81.27         258.03
         311.21         462.06
         227.63         341.51
         302.54         471.85
          92.00         360.29
         167.36         262.21
          97.30         508.68
         541.08         521.38
         305.14         475.04
         266.81         680.51
         530.89         725.08
         207.21         290.06
         328.79         622.49
         194.85         436.33
        1389.78         149.34
         536.21         171.39
         813.09         437.37
          89.72         382.64
          12.44         180.11
         216.02         540.06
         435.72         325.74
         137.60         897.48
         732.85         691.23
         374.63         723.12
         443.65         159.40
         430.91         895.82
         866.92         389.37
         377.32         548.10
         896.68         483.00
         157.81         622.06
        1263.48         185.88
         735.12         752.30
         164.59         718.57
          68.70         788.79
          91.11         263.78
         386.91         514.83
         422.57         223.74
         120.46         451.55
         454.11         386.08
         149.52         289.54
         172.64         807.41
         728.60         551.05
         237.25         430.20
         178.65         346.65
         738.26         488.89
          94.90         547.98
